title:Blinking                                                                        , recorded:07.04.13 17.04.29, sampling:128, subject:SpecialActivity                                                                 , labels:COUNTER INTERPOLATED AF3 F7 F3 FC5 T7 P7 O1 O2 P8 T8 FC6 F4 F8 AF4 RAW_CQ CQ_AF3 CQ_F7 CQ_F3 CQ_FC5 CQ_T7 CQ_P7 CQ_O1 CQ_O2 CQ_P8 CQ_T8 CQ_FC6 CQ_F4 CQ_F8 CQ_AF4 CQ_CMS CQ_DRL GYROX GYROY MARKER, chan:36, units:emotiv
72.00000000000000000000, 0.00000000000000000000, 4410.00000000000000000000, 198.31578947368422000000, 4073.00000000000000000000, -301.27368421052631000000, 4536.00000000000000000000, 2.83157894736842100000, 4397.00000000000000000000, 23.95789473684210700000, 3893.00000000000000000000, -55.12631578947368600000, 4486.00000000000000000000, 171.65263157894736000000, 4755.00000000000000000000, -185.77894736842106000000, 436.00000000000000000000, 4.00000000000000000000, 4.00000000000000000000, 4.00000000000000000000, 4.00000000000000000000, 4.00000000000000000000, 4.00000000000000000000, 4.00000000000000000000, 4.00000000000000000000, 4.00000000000000000000, 4.00000000000000000000, 4.00000000000000000000, 4.00000000000000000000, 4.00000000000000000000, 4.00000000000000000000, 4.00000000000000000000, 4.00000000000000000000, 1700.00000000000000000000, 1689.00000000000000000000, 0.00000000000000000000
73.00000000000000000000, 0.00000000000000000000, 4415.00000000000000000000, 196.77894736842106000000, 4073.00000000000000000000, -307.94736842105266000000, 4540.00000000000000000000, 8.97894736842105350000, 4401.00000000000000000000, 26.52631578947368500000, 3897.00000000000000000000, -46.91578947368421400000, 4492.00000000000000000000, 174.22105263157894000000, 4761.00000000000000000000, -175.52631578947367000000, 441.00000000000000000000, 4.00000000000000000000, 4.00000000000000000000, 4.00000000000000000000, 4.00000000000000000000, 4.00000000000000000000, 4.00000000000000000000, 4.00000000000000000000, 4.00000000000000000000, 4.00000000000000000000, 4.00000000000000000000, 4.00000000000000000000, 4.00000000000000000000, 4.00000000000000000000, 4.00000000000000000000, 4.00000000000000000000, 4.00000000000000000000, 1699.00000000000000000000, 1688.00000000000000000000, 0.00000000000000000000
74.00000000000000000000, 0.00000000000000000000, 4407.00000000000000000000, 188.57894736842104000000, 4068.00000000000000000000, -308.45263157894738000000, 4537.00000000000000000000, 17.18947368421052600000, 4415.00000000000000000000, 37.81052631578947400000, 3904.00000000000000000000, -44.35789473684210500000, 4490.00000000000000000000, 174.22105263157894000000, 4758.00000000000000000000, -181.16842105263157000000, 481.00000000000000000000, 4.00000000000000000000, 4.00000000000000000000, 4.00000000000000000000, 4.00000000000000000000, 4.00000000000000000000, 4.00000000000000000000, 4.00000000000000000000, 4.00000000000000000000, 4.00000000000000000000, 4.00000000000000000000, 4.00000000000000000000, 4.00000000000000000000, 4.00000000000000000000, 4.00000000000000000000, 4.00000000000000000000, 4.00000000000000000000, 1698.00000000000000000000, 1688.00000000000000000000, 0.00000000000000000000
75.00000000000000000000, 0.00000000000000000000, 4400.00000000000000000000, 181.40000000000001000000, 4069.00000000000000000000, -313.07368421052632000000, 4529.00000000000000000000, 18.21052631578947300000, 4426.00000000000000000000, 47.04210526315789300000, 3913.00000000000000000000, -40.76842105263158100000, 4490.00000000000000000000, 171.13684210526316000000, 4760.00000000000000000000, -186.81052631578947000000, 484.00000000000000000000, 4.00000000000000000000, 4.00000000000000000000, 4.00000000000000000000, 4.00000000000000000000, 4.00000000000000000000, 4.00000000000000000000, 4.00000000000000000000, 4.00000000000000000000, 4.00000000000000000000, 4.00000000000000000000, 4.00000000000000000000, 4.00000000000000000000, 4.00000000000000000000, 4.00000000000000000000, 4.00000000000000000000, 4.00000000000000000000, 1699.00000000000000000000, 1687.00000000000000000000, 0.00000000000000000000
76.00000000000000000000, 0.00000000000000000000, 4402.00000000000000000000, 183.95789473684209000000, 4081.00000000000000000000, -314.09473684210525000000, 4529.00000000000000000000, 21.28421052631578900000, 4422.00000000000000000000, 36.77894736842105100000, 3912.00000000000000000000, -38.20000000000000300000, 4492.00000000000000000000, 172.68421052631578000000, 4761.00000000000000000000, -187.31578947368422000000, 457.00000000000000000000, 4.00000000000000000000, 4.00000000000000000000, 4.00000000000000000000, 4.00000000000000000000, 4.00000000000000000000, 4.00000000000000000000, 4.00000000000000000000, 4.00000000000000000000, 4.00000000000000000000, 4.00000000000000000000, 4.00000000000000000000, 4.00000000000000000000, 4.00000000000000000000, 4.00000000000000000000, 4.00000000000000000000, 4.00000000000000000000, 1699.00000000000000000000, 1687.00000000000000000000, 0.00000000000000000000
77.00000000000000000000, 0.00000000000000000000, 4405.00000000000000000000, 191.65263157894736000000, 4079.00000000000000000000, -305.89473684210526000000, 4534.00000000000000000000, 24.36842105263157900000, 4411.00000000000000000000, 28.06315789473684300000, 3907.00000000000000000000, -41.27368421052631900000, 4492.00000000000000000000, 171.65263157894736000000, 4758.00000000000000000000, -190.91578947368421000000, 402.00000000000000000000, 4.00000000000000000000, 4.00000000000000000000, 4.00000000000000000000, 4.00000000000000000000, 4.00000000000000000000, 4.00000000000000000000, 4.00000000000000000000, 4.00000000000000000000, 4.00000000000000000000, 4.00000000000000000000, 4.00000000000000000000, 4.00000000000000000000, 4.00000000000000000000, 4.00000000000000000000, 4.00000000000000000000, 4.00000000000000000000, 1697.00000000000000000000, 1687.00000000000000000000, 0.00000000000000000000
78.00000000000000000000, 0.00000000000000000000, 4403.00000000000000000000, 190.63157894736841000000, 4069.00000000000000000000, -306.91578947368419000000, 4535.00000000000000000000, 24.87368421052631700000, 4407.00000000000000000000, 30.11578947368421000000, 3907.00000000000000000000, -46.91578947368421400000, 4488.00000000000000000000, 165.49473684210525000000, 4753.00000000000000000000, -196.04210526315791000000, 481.00000000000000000000, 4.00000000000000000000, 4.00000000000000000000, 4.00000000000000000000, 4.00000000000000000000, 4.00000000000000000000, 4.00000000000000000000, 4.00000000000000000000, 4.00000000000000000000, 4.00000000000000000000, 4.00000000000000000000, 4.00000000000000000000, 4.00000000000000000000, 4.00000000000000000000, 4.00000000000000000000, 4.00000000000000000000, 4.00000000000000000000, 1697.00000000000000000000, 1688.00000000000000000000, 0.00000000000000000000
79.00000000000000000000, 0.00000000000000000000, 4399.00000000000000000000, 187.54736842105262000000, 4070.00000000000000000000, -310.50526315789472000000, 4534.00000000000000000000, 25.90526315789473700000, 4404.00000000000000000000, 20.88421052631579000000, 3891.00000000000000000000, -57.16842105263157900000, 4478.00000000000000000000, 164.47368421052633000000, 4745.00000000000000000000, -202.18947368421053000000, 484.00000000000000000000, 4.00000000000000000000, 4.00000000000000000000, 4.00000000000000000000, 4.00000000000000000000, 4.00000000000000000000, 4.00000000000000000000, 4.00000000000000000000, 4.00000000000000000000, 4.00000000000000000000, 4.00000000000000000000, 4.00000000000000000000, 4.00000000000000000000, 4.00000000000000000000, 4.00000000000000000000, 4.00000000000000000000, 4.00000000000000000000, 1697.00000000000000000000, 1687.00000000000000000000, 0.00000000000000000000
80.00000000000000000000, 0.00000000000000000000, 4396.00000000000000000000, 193.18947368421053000000, 4073.00000000000000000000, -306.91578947368419000000, 4536.00000000000000000000, 25.90526315789473700000, 4396.00000000000000000000, 8.57894736842105310000, 3878.00000000000000000000, -61.78947368421052700000, 4474.00000000000000000000, 161.90526315789472000000, 4742.00000000000000000000, -209.36842105263159000000, 457.00000000000000000000, 4.00000000000000000000, 4.00000000000000000000, 4.00000000000000000000, 4.00000000000000000000, 4.00000000000000000000, 4.00000000000000000000, 4.00000000000000000000, 4.00000000000000000000, 4.00000000000000000000, 4.00000000000000000000, 4.00000000000000000000, 4.00000000000000000000, 4.00000000000000000000, 4.00000000000000000000, 4.00000000000000000000, 4.00000000000000000000, 1696.00000000000000000000, 1688.00000000000000000000, 0.00000000000000000000
81.00000000000000000000, 0.00000000000000000000, 4394.00000000000000000000, 195.75789473684210000000, 4079.00000000000000000000, -306.91578947368419000000, 4535.00000000000000000000, 22.31578947368420900000, 4399.00000000000000000000, 22.93684210526315700000, 3891.00000000000000000000, -56.14736842105263300000, 4475.00000000000000000000, 161.90526315789472000000, 4741.00000000000000000000, -209.36842105263159000000, 402.00000000000000000000, 4.00000000000000000000, 4.00000000000000000000, 4.00000000000000000000, 4.00000000000000000000, 4.00000000000000000000, 4.00000000000000000000, 4.00000000000000000000, 4.00000000000000000000, 4.00000000000000000000, 4.00000000000000000000, 4.00000000000000000000, 4.00000000000000000000, 4.00000000000000000000, 4.00000000000000000000, 4.00000000000000000000, 4.00000000000000000000, 1697.00000000000000000000, 1686.00000000000000000000, 0.00000000000000000000
82.00000000000000000000, 0.00000000000000000000, 4391.00000000000000000000, 192.16842105263157000000, 4081.00000000000000000000, -307.43157894736839000000, 4535.00000000000000000000, 24.87368421052631700000, 4409.00000000000000000000, 36.77894736842105100000, 3904.00000000000000000000, -52.04210526315789300000, 4476.00000000000000000000, 162.42105263157896000000, 4740.00000000000000000000, -207.83157894736843000000, 481.00000000000000000000, 4.00000000000000000000, 4.00000000000000000000, 4.00000000000000000000, 4.00000000000000000000, 4.00000000000000000000, 4.00000000000000000000, 4.00000000000000000000, 4.00000000000000000000, 4.00000000000000000000, 4.00000000000000000000, 4.00000000000000000000, 4.00000000000000000000, 4.00000000000000000000, 4.00000000000000000000, 4.00000000000000000000, 4.00000000000000000000, 1696.00000000000000000000, 1686.00000000000000000000, 0.00000000000000000000
83.00000000000000000000, 0.00000000000000000000, 4386.00000000000000000000, 190.11578947368420000000, 4068.00000000000000000000, -306.91578947368419000000, 4541.00000000000000000000, 32.05263157894737000000, 4412.00000000000000000000, 29.60000000000000100000, 3899.00000000000000000000, -57.68421052631578800000, 4471.00000000000000000000, 156.27368421052631000000, 4737.00000000000000000000, -212.45263157894738000000, 484.00000000000000000000, 4.00000000000000000000, 4.00000000000000000000, 4.00000000000000000000, 4.00000000000000000000, 4.00000000000000000000, 4.00000000000000000000, 4.00000000000000000000, 4.00000000000000000000, 4.00000000000000000000, 4.00000000000000000000, 4.00000000000000000000, 4.00000000000000000000, 4.00000000000000000000, 4.00000000000000000000, 4.00000000000000000000, 4.00000000000000000000, 1696.00000000000000000000, 1686.00000000000000000000, 0.00000000000000000000
84.00000000000000000000, 0.00000000000000000000, 4376.00000000000000000000, 189.08421052631579000000, 4061.00000000000000000000, -309.48421052631579000000, 4539.00000000000000000000, 33.60000000000000100000, 4411.00000000000000000000, 24.98947368421052700000, 3894.00000000000000000000, -67.94736842105263000000, 4464.00000000000000000000, 154.22105263157894000000, 4732.00000000000000000000, -217.57894736842104000000, 457.00000000000000000000, 4.00000000000000000000, 4.00000000000000000000, 4.00000000000000000000, 4.00000000000000000000, 4.00000000000000000000, 4.00000000000000000000, 4.00000000000000000000, 4.00000000000000000000, 4.00000000000000000000, 4.00000000000000000000, 4.00000000000000000000, 4.00000000000000000000, 4.00000000000000000000, 4.00000000000000000000, 4.00000000000000000000, 4.00000000000000000000, 1697.00000000000000000000, 1686.00000000000000000000, 0.00000000000000000000
85.00000000000000000000, 0.00000000000000000000, 4377.00000000000000000000, 189.59999999999999000000, 4063.00000000000000000000, -309.98947368421051000000, 4535.00000000000000000000, 31.03157894736842000000, 4408.00000000000000000000, 28.57894736842105100000, 3905.00000000000000000000, -61.27368421052631900000, 4472.00000000000000000000, 160.88421052631580000000, 4737.00000000000000000000, -206.29473684210527000000, 402.00000000000000000000, 4.00000000000000000000, 4.00000000000000000000, 4.00000000000000000000, 4.00000000000000000000, 4.00000000000000000000, 4.00000000000000000000, 4.00000000000000000000, 4.00000000000000000000, 4.00000000000000000000, 4.00000000000000000000, 4.00000000000000000000, 4.00000000000000000000, 4.00000000000000000000, 4.00000000000000000000, 4.00000000000000000000, 4.00000000000000000000, 1696.00000000000000000000, 1687.00000000000000000000, 0.00000000000000000000
86.00000000000000000000, 0.00000000000000000000, 4386.00000000000000000000, 190.63157894736841000000, 4065.00000000000000000000, -307.94736842105266000000, 4531.00000000000000000000, 29.49473684210526200000, 4410.00000000000000000000, 35.24210526315789600000, 3918.00000000000000000000, -43.84210526315789700000, 4487.00000000000000000000, 170.11578947368420000000, 4748.00000000000000000000, -191.42105263157896000000, 481.00000000000000000000, 4.00000000000000000000, 4.00000000000000000000, 4.00000000000000000000, 4.00000000000000000000, 4.00000000000000000000, 4.00000000000000000000, 4.00000000000000000000, 4.00000000000000000000, 4.00000000000000000000, 4.00000000000000000000, 4.00000000000000000000, 4.00000000000000000000, 4.00000000000000000000, 4.00000000000000000000, 4.00000000000000000000, 4.00000000000000000000, 1698.00000000000000000000, 1686.00000000000000000000, 0.00000000000000000000
87.00000000000000000000, 0.00000000000000000000, 4386.00000000000000000000, 187.04210526315791000000, 4055.00000000000000000000, -308.45263157894738000000, 4524.00000000000000000000, 32.05263157894737000000, 4422.00000000000000000000, 35.24210526315789600000, 3915.00000000000000000000, -44.86315789473684400000, 4489.00000000000000000000, 170.63157894736841000000, 4748.00000000000000000000, -197.06315789473683000000, 484.00000000000000000000, 4.00000000000000000000, 4.00000000000000000000, 4.00000000000000000000, 4.00000000000000000000, 4.00000000000000000000, 4.00000000000000000000, 4.00000000000000000000, 4.00000000000000000000, 4.00000000000000000000, 4.00000000000000000000, 4.00000000000000000000, 4.00000000000000000000, 4.00000000000000000000, 4.00000000000000000000, 4.00000000000000000000, 4.00000000000000000000, 1697.00000000000000000000, 1686.00000000000000000000, 0.00000000000000000000
88.00000000000000000000, 0.00000000000000000000, 4378.00000000000000000000, 187.54736842105262000000, 4043.00000000000000000000, -309.48421052631579000000, 4527.00000000000000000000, 33.60000000000000100000, 4417.00000000000000000000, 24.98947368421052700000, 3906.00000000000000000000, -52.04210526315789300000, 4481.00000000000000000000, 160.36842105263159000000, 4746.00000000000000000000, -208.86315789473684000000, 457.00000000000000000000, 4.00000000000000000000, 4.00000000000000000000, 4.00000000000000000000, 4.00000000000000000000, 4.00000000000000000000, 4.00000000000000000000, 4.00000000000000000000, 4.00000000000000000000, 4.00000000000000000000, 4.00000000000000000000, 4.00000000000000000000, 4.00000000000000000000, 4.00000000000000000000, 4.00000000000000000000, 4.00000000000000000000, 4.00000000000000000000, 1698.00000000000000000000, 1686.00000000000000000000, 0.00000000000000000000
89.00000000000000000000, 0.00000000000000000000, 4375.00000000000000000000, 195.24210526315790000000, 4045.00000000000000000000, -306.39999999999998000000, 4537.00000000000000000000, 31.03157894736842000000, 4401.00000000000000000000, 19.86315789473684000000, 3906.00000000000000000000, -48.45263157894736800000, 4480.00000000000000000000, 155.75789473684210000000, 4750.00000000000000000000, -207.83157894736843000000, 402.00000000000000000000, 4.00000000000000000000, 4.00000000000000000000, 4.00000000000000000000, 4.00000000000000000000, 4.00000000000000000000, 4.00000000000000000000, 4.00000000000000000000, 4.00000000000000000000, 4.00000000000000000000, 4.00000000000000000000, 4.00000000000000000000, 4.00000000000000000000, 4.00000000000000000000, 4.00000000000000000000, 4.00000000000000000000, 4.00000000000000000000, 1698.00000000000000000000, 1685.00000000000000000000, 0.00000000000000000000
90.00000000000000000000, 0.00000000000000000000, 4375.00000000000000000000, 196.27368421052631000000, 4049.00000000000000000000, -305.89473684210526000000, 4538.00000000000000000000, 34.10526315789474000000, 4405.00000000000000000000, 30.11578947368421000000, 3911.00000000000000000000, -45.89473684210526000000, 4483.00000000000000000000, 155.24210526315790000000, 4751.00000000000000000000, -207.83157894736843000000, 481.00000000000000000000, 4.00000000000000000000, 4.00000000000000000000, 4.00000000000000000000, 4.00000000000000000000, 4.00000000000000000000, 4.00000000000000000000, 4.00000000000000000000, 4.00000000000000000000, 4.00000000000000000000, 4.00000000000000000000, 4.00000000000000000000, 4.00000000000000000000, 4.00000000000000000000, 4.00000000000000000000, 4.00000000000000000000, 4.00000000000000000000, 1698.00000000000000000000, 1684.00000000000000000000, 0.00000000000000000000
91.00000000000000000000, 0.00000000000000000000, 4376.00000000000000000000, 194.72631578947369000000, 4053.00000000000000000000, -308.45263157894738000000, 4532.00000000000000000000, 35.64210526315789500000, 4414.00000000000000000000, 41.39999999999999900000, 3917.00000000000000000000, -46.91578947368421400000, 4483.00000000000000000000, 157.29473684210527000000, 4752.00000000000000000000, -213.47368421052633000000, 484.00000000000000000000, 4.00000000000000000000, 4.00000000000000000000, 4.00000000000000000000, 4.00000000000000000000, 4.00000000000000000000, 4.00000000000000000000, 4.00000000000000000000, 4.00000000000000000000, 4.00000000000000000000, 4.00000000000000000000, 4.00000000000000000000, 4.00000000000000000000, 4.00000000000000000000, 4.00000000000000000000, 4.00000000000000000000, 4.00000000000000000000, 1698.00000000000000000000, 1685.00000000000000000000, 0.00000000000000000000
92.00000000000000000000, 0.00000000000000000000, 4381.00000000000000000000, 197.29473684210527000000, 4068.00000000000000000000, -309.48421052631579000000, 4534.00000000000000000000, 34.10526315789474000000, 4409.00000000000000000000, 38.31578947368421200000, 3924.00000000000000000000, -45.37894736842105200000, 4481.00000000000000000000, 162.93684210526317000000, 4752.00000000000000000000, -209.36842105263159000000, 457.00000000000000000000, 4.00000000000000000000, 4.00000000000000000000, 4.00000000000000000000, 4.00000000000000000000, 4.00000000000000000000, 4.00000000000000000000, 4.00000000000000000000, 4.00000000000000000000, 4.00000000000000000000, 4.00000000000000000000, 4.00000000000000000000, 4.00000000000000000000, 4.00000000000000000000, 4.00000000000000000000, 4.00000000000000000000, 4.00000000000000000000, 1700.00000000000000000000, 1684.00000000000000000000, 0.00000000000000000000
93.00000000000000000000, 0.00000000000000000000, 4384.00000000000000000000, 203.45263157894738000000, 4079.00000000000000000000, -303.32631578947371000000, 4540.00000000000000000000, 33.60000000000000100000, 4401.00000000000000000000, 26.52631578947368500000, 3924.00000000000000000000, -42.81052631578947400000, 4486.00000000000000000000, 164.98947368421054000000, 4753.00000000000000000000, -202.18947368421053000000, 402.00000000000000000000, 4.00000000000000000000, 4.00000000000000000000, 4.00000000000000000000, 4.00000000000000000000, 4.00000000000000000000, 4.00000000000000000000, 4.00000000000000000000, 4.00000000000000000000, 4.00000000000000000000, 4.00000000000000000000, 4.00000000000000000000, 4.00000000000000000000, 4.00000000000000000000, 4.00000000000000000000, 4.00000000000000000000, 4.00000000000000000000, 1699.00000000000000000000, 1684.00000000000000000000, 0.00000000000000000000
94.00000000000000000000, 0.00000000000000000000, 4387.00000000000000000000, 208.06315789473683000000, 4086.00000000000000000000, -299.73684210526318000000, 4536.00000000000000000000, 32.05263157894737000000, 4401.00000000000000000000, 15.75789473684210600000, 3911.00000000000000000000, -44.35789473684210500000, 4491.00000000000000000000, 165.49473684210525000000, 4756.00000000000000000000, -204.75789473684210000000, 481.00000000000000000000, 4.00000000000000000000, 4.00000000000000000000, 4.00000000000000000000, 4.00000000000000000000, 4.00000000000000000000, 4.00000000000000000000, 4.00000000000000000000, 4.00000000000000000000, 4.00000000000000000000, 4.00000000000000000000, 4.00000000000000000000, 4.00000000000000000000, 4.00000000000000000000, 4.00000000000000000000, 4.00000000000000000000, 4.00000000000000000000, 1700.00000000000000000000, 1686.00000000000000000000, 0.00000000000000000000
95.00000000000000000000, 0.00000000000000000000, 4392.00000000000000000000, 211.13684210526316000000, 4086.00000000000000000000, -302.30526315789473000000, 4532.00000000000000000000, 30.01052631578947300000, 4396.00000000000000000000, 14.72631578947368400000, 3906.00000000000000000000, -43.32631578947368200000, 4490.00000000000000000000, 169.08421052631579000000, 4762.00000000000000000000, -197.57894736842104000000, 484.00000000000000000000, 4.00000000000000000000, 4.00000000000000000000, 4.00000000000000000000, 4.00000000000000000000, 4.00000000000000000000, 4.00000000000000000000, 4.00000000000000000000, 4.00000000000000000000, 4.00000000000000000000, 4.00000000000000000000, 4.00000000000000000000, 4.00000000000000000000, 4.00000000000000000000, 4.00000000000000000000, 4.00000000000000000000, 4.00000000000000000000, 1700.00000000000000000000, 1684.00000000000000000000, 0.00000000000000000000
96.00000000000000000000, 0.00000000000000000000, 4401.00000000000000000000, 216.27368421052631000000, 4083.00000000000000000000, -297.16842105263157000000, 4536.00000000000000000000, 32.05263157894737000000, 4395.00000000000000000000, 19.34736842105263200000, 3911.00000000000000000000, -40.25263157894736600000, 4493.00000000000000000000, 176.27368421052631000000, 4768.00000000000000000000, -176.54736842105262000000, 457.00000000000000000000, 4.00000000000000000000, 4.00000000000000000000, 4.00000000000000000000, 4.00000000000000000000, 4.00000000000000000000, 4.00000000000000000000, 4.00000000000000000000, 4.00000000000000000000, 4.00000000000000000000, 4.00000000000000000000, 4.00000000000000000000, 4.00000000000000000000, 4.00000000000000000000, 4.00000000000000000000, 4.00000000000000000000, 4.00000000000000000000, 1700.00000000000000000000, 1686.00000000000000000000, 0.00000000000000000000
97.00000000000000000000, 0.00000000000000000000, 4404.00000000000000000000, 218.83157894736843000000, 4082.00000000000000000000, -292.55789473684212000000, 4537.00000000000000000000, 33.60000000000000100000, 4403.00000000000000000000, 17.29473684210526200000, 3906.00000000000000000000, -47.94736842105263000000, 4492.00000000000000000000, 178.83157894736843000000, 4763.00000000000000000000, -174.50526315789475000000, 402.00000000000000000000, 4.00000000000000000000, 4.00000000000000000000, 4.00000000000000000000, 4.00000000000000000000, 4.00000000000000000000, 4.00000000000000000000, 4.00000000000000000000, 4.00000000000000000000, 4.00000000000000000000, 4.00000000000000000000, 4.00000000000000000000, 4.00000000000000000000, 4.00000000000000000000, 4.00000000000000000000, 4.00000000000000000000, 4.00000000000000000000, 1700.00000000000000000000, 1685.00000000000000000000, 0.00000000000000000000
98.00000000000000000000, 0.00000000000000000000, 4392.00000000000000000000, 210.63157894736841000000, 4076.00000000000000000000, -302.30526315789473000000, 4534.00000000000000000000, 34.62105263157894800000, 4403.00000000000000000000, 17.81052631578947400000, 3901.00000000000000000000, -61.27368421052631900000, 4481.00000000000000000000, 165.49473684210525000000, 4749.00000000000000000000, -193.98947368421054000000, 481.00000000000000000000, 4.00000000000000000000, 4.00000000000000000000, 4.00000000000000000000, 4.00000000000000000000, 4.00000000000000000000, 4.00000000000000000000, 4.00000000000000000000, 4.00000000000000000000, 4.00000000000000000000, 4.00000000000000000000, 4.00000000000000000000, 4.00000000000000000000, 4.00000000000000000000, 4.00000000000000000000, 4.00000000000000000000, 4.00000000000000000000, 1700.00000000000000000000, 1686.00000000000000000000, 0.00000000000000000000
99.00000000000000000000, 0.00000000000000000000, 4378.00000000000000000000, 200.88421052631580000000, 4075.00000000000000000000, -312.55789473684212000000, 4530.00000000000000000000, 39.23157894736841900000, 4403.00000000000000000000, 21.90526315789473700000, 3902.00000000000000000000, -64.35789473684209800000, 4474.00000000000000000000, 158.83157894736843000000, 4743.00000000000000000000, -201.16842105263157000000, 484.00000000000000000000, 4.00000000000000000000, 4.00000000000000000000, 4.00000000000000000000, 4.00000000000000000000, 4.00000000000000000000, 4.00000000000000000000, 4.00000000000000000000, 4.00000000000000000000, 4.00000000000000000000, 4.00000000000000000000, 4.00000000000000000000, 4.00000000000000000000, 4.00000000000000000000, 4.00000000000000000000, 4.00000000000000000000, 4.00000000000000000000, 1700.00000000000000000000, 1685.00000000000000000000, 0.00000000000000000000
100.00000000000000000000, 0.00000000000000000000, 4378.00000000000000000000, 203.45263157894738000000, 4082.00000000000000000000, -309.48421052631579000000, 4527.00000000000000000000, 44.36842105263158200000, 4409.00000000000000000000, 24.98947368421052700000, 3908.00000000000000000000, -52.55789473684210800000, 4484.00000000000000000000, 167.54736842105262000000, 4754.00000000000000000000, -193.47368421052633000000, 457.00000000000000000000, 4.00000000000000000000, 4.00000000000000000000, 4.00000000000000000000, 4.00000000000000000000, 4.00000000000000000000, 4.00000000000000000000, 4.00000000000000000000, 4.00000000000000000000, 4.00000000000000000000, 4.00000000000000000000, 4.00000000000000000000, 4.00000000000000000000, 4.00000000000000000000, 4.00000000000000000000, 4.00000000000000000000, 4.00000000000000000000, 1700.00000000000000000000, 1685.00000000000000000000, 0.00000000000000000000
101.00000000000000000000, 0.00000000000000000000, 4382.00000000000000000000, 210.11578947368420000000, 4078.00000000000000000000, -304.86315789473684000000, 4527.00000000000000000000, 45.90526315789473700000, 4411.00000000000000000000, 30.63157894736842100000, 3917.00000000000000000000, -45.89473684210526000000, 4493.00000000000000000000, 167.54736842105262000000, 4762.00000000000000000000, -191.93684210526317000000, 402.00000000000000000000, 4.00000000000000000000, 4.00000000000000000000, 4.00000000000000000000, 4.00000000000000000000, 4.00000000000000000000, 4.00000000000000000000, 4.00000000000000000000, 4.00000000000000000000, 4.00000000000000000000, 4.00000000000000000000, 4.00000000000000000000, 4.00000000000000000000, 4.00000000000000000000, 4.00000000000000000000, 4.00000000000000000000, 4.00000000000000000000, 1700.00000000000000000000, 1685.00000000000000000000, 0.00000000000000000000
102.00000000000000000000, 0.00000000000000000000, 4375.00000000000000000000, 209.08421052631579000000, 4068.00000000000000000000, -309.48421052631579000000, 4530.00000000000000000000, 46.42105263157894500000, 4409.00000000000000000000, 28.57894736842105100000, 3918.00000000000000000000, -51.53684210526315500000, 4488.00000000000000000000, 160.36842105263159000000, 4753.00000000000000000000, -199.63157894736841000000, 481.00000000000000000000, 4.00000000000000000000, 4.00000000000000000000, 4.00000000000000000000, 4.00000000000000000000, 4.00000000000000000000, 4.00000000000000000000, 4.00000000000000000000, 4.00000000000000000000, 4.00000000000000000000, 4.00000000000000000000, 4.00000000000000000000, 4.00000000000000000000, 4.00000000000000000000, 4.00000000000000000000, 4.00000000000000000000, 4.00000000000000000000, 1700.00000000000000000000, 1685.00000000000000000000, 0.00000000000000000000
103.00000000000000000000, 0.00000000000000000000, 4367.00000000000000000000, 210.11578947368420000000, 4066.00000000000000000000, -314.09473684210525000000, 4537.00000000000000000000, 45.90526315789473700000, 4404.00000000000000000000, 16.27368421052631600000, 3913.00000000000000000000, -48.96842105263157700000, 4486.00000000000000000000, 155.24210526315790000000, 4754.00000000000000000000, -203.22105263157894000000, 484.00000000000000000000, 4.00000000000000000000, 4.00000000000000000000, 4.00000000000000000000, 4.00000000000000000000, 4.00000000000000000000, 4.00000000000000000000, 4.00000000000000000000, 4.00000000000000000000, 4.00000000000000000000, 4.00000000000000000000, 4.00000000000000000000, 4.00000000000000000000, 4.00000000000000000000, 4.00000000000000000000, 4.00000000000000000000, 4.00000000000000000000, 1699.00000000000000000000, 1686.00000000000000000000, 0.00000000000000000000
104.00000000000000000000, 0.00000000000000000000, 4368.00000000000000000000, 212.68421052631578000000, 4072.00000000000000000000, -311.53684210526313000000, 4536.00000000000000000000, 43.85263157894736700000, 4403.00000000000000000000, 16.27368421052631600000, 3914.00000000000000000000, -42.30526315789473600000, 4493.00000000000000000000, 156.27368421052631000000, 4765.00000000000000000000, -199.63157894736841000000, 457.00000000000000000000, 4.00000000000000000000, 4.00000000000000000000, 4.00000000000000000000, 4.00000000000000000000, 4.00000000000000000000, 4.00000000000000000000, 4.00000000000000000000, 4.00000000000000000000, 4.00000000000000000000, 4.00000000000000000000, 4.00000000000000000000, 4.00000000000000000000, 4.00000000000000000000, 4.00000000000000000000, 4.00000000000000000000, 4.00000000000000000000, 1699.00000000000000000000, 1687.00000000000000000000, 0.00000000000000000000
105.00000000000000000000, 0.00000000000000000000, 4373.00000000000000000000, 210.63157894736841000000, 4072.00000000000000000000, -305.37894736842105000000, 4531.00000000000000000000, 41.79999999999999700000, 4407.00000000000000000000, 30.11578947368421000000, 3922.00000000000000000000, -40.25263157894736600000, 4496.00000000000000000000, 161.40000000000001000000, 4765.00000000000000000000, -197.57894736842104000000, 402.00000000000000000000, 4.00000000000000000000, 4.00000000000000000000, 4.00000000000000000000, 4.00000000000000000000, 4.00000000000000000000, 4.00000000000000000000, 4.00000000000000000000, 4.00000000000000000000, 4.00000000000000000000, 4.00000000000000000000, 4.00000000000000000000, 4.00000000000000000000, 4.00000000000000000000, 4.00000000000000000000, 4.00000000000000000000, 4.00000000000000000000, 1699.00000000000000000000, 1687.00000000000000000000, 0.00000000000000000000
106.00000000000000000000, 0.00000000000000000000, 4372.00000000000000000000, 210.63157894736841000000, 4065.00000000000000000000, -306.39999999999998000000, 4530.00000000000000000000, 41.79999999999999700000, 4416.00000000000000000000, 37.29473684210526600000, 3925.00000000000000000000, -40.76842105263158100000, 4494.00000000000000000000, 161.40000000000001000000, 4761.00000000000000000000, -202.18947368421053000000, 481.00000000000000000000, 4.00000000000000000000, 4.00000000000000000000, 4.00000000000000000000, 4.00000000000000000000, 4.00000000000000000000, 4.00000000000000000000, 4.00000000000000000000, 4.00000000000000000000, 4.00000000000000000000, 4.00000000000000000000, 4.00000000000000000000, 4.00000000000000000000, 4.00000000000000000000, 4.00000000000000000000, 4.00000000000000000000, 4.00000000000000000000, 1698.00000000000000000000, 1688.00000000000000000000, 0.00000000000000000000
107.00000000000000000000, 0.00000000000000000000, 4368.00000000000000000000, 211.65263157894736000000, 4067.00000000000000000000, -312.04210526315791000000, 4528.00000000000000000000, 43.85263157894736700000, 4422.00000000000000000000, 38.83157894736842100000, 3924.00000000000000000000, -46.39999999999999900000, 4489.00000000000000000000, 157.81052631578947000000, 4757.00000000000000000000, -205.27368421052631000000, 484.00000000000000000000, 4.00000000000000000000, 4.00000000000000000000, 4.00000000000000000000, 4.00000000000000000000, 4.00000000000000000000, 4.00000000000000000000, 4.00000000000000000000, 4.00000000000000000000, 4.00000000000000000000, 4.00000000000000000000, 4.00000000000000000000, 4.00000000000000000000, 4.00000000000000000000, 4.00000000000000000000, 4.00000000000000000000, 4.00000000000000000000, 1699.00000000000000000000, 1687.00000000000000000000, 0.00000000000000000000
108.00000000000000000000, 0.00000000000000000000, 4374.00000000000000000000, 215.24210526315790000000, 4071.00000000000000000000, -309.98947368421051000000, 4532.00000000000000000000, 46.42105263157894500000, 4410.00000000000000000000, 39.86315789473684400000, 3929.00000000000000000000, -47.43157894736842200000, 4491.00000000000000000000, 157.81052631578947000000, 4758.00000000000000000000, -198.09473684210528000000, 457.00000000000000000000, 4.00000000000000000000, 4.00000000000000000000, 4.00000000000000000000, 4.00000000000000000000, 4.00000000000000000000, 4.00000000000000000000, 4.00000000000000000000, 4.00000000000000000000, 4.00000000000000000000, 4.00000000000000000000, 4.00000000000000000000, 4.00000000000000000000, 4.00000000000000000000, 4.00000000000000000000, 4.00000000000000000000, 4.00000000000000000000, 1699.00000000000000000000, 1686.00000000000000000000, 0.00000000000000000000
109.00000000000000000000, 0.00000000000000000000, 4378.00000000000000000000, 217.29473684210527000000, 4072.00000000000000000000, -306.91578947368419000000, 4537.00000000000000000000, 46.92631578947368400000, 4412.00000000000000000000, 33.18947368421052600000, 3919.00000000000000000000, -52.04210526315789300000, 4490.00000000000000000000, 160.88421052631580000000, 4758.00000000000000000000, -197.57894736842104000000, 402.00000000000000000000, 4.00000000000000000000, 4.00000000000000000000, 4.00000000000000000000, 4.00000000000000000000, 4.00000000000000000000, 4.00000000000000000000, 4.00000000000000000000, 4.00000000000000000000, 4.00000000000000000000, 4.00000000000000000000, 4.00000000000000000000, 4.00000000000000000000, 4.00000000000000000000, 4.00000000000000000000, 4.00000000000000000000, 4.00000000000000000000, 1699.00000000000000000000, 1684.00000000000000000000, 0.00000000000000000000
110.00000000000000000000, 0.00000000000000000000, 4372.00000000000000000000, 211.65263157894736000000, 4069.00000000000000000000, -314.09473684210525000000, 4533.00000000000000000000, 48.46315789473684500000, 4433.00000000000000000000, 38.83157894736842100000, 3905.00000000000000000000, -64.35789473684209800000, 4478.00000000000000000000, 155.75789473684210000000, 4747.00000000000000000000, -204.75789473684210000000, 481.00000000000000000000, 4.00000000000000000000, 4.00000000000000000000, 4.00000000000000000000, 4.00000000000000000000, 4.00000000000000000000, 4.00000000000000000000, 4.00000000000000000000, 4.00000000000000000000, 4.00000000000000000000, 4.00000000000000000000, 4.00000000000000000000, 4.00000000000000000000, 4.00000000000000000000, 4.00000000000000000000, 4.00000000000000000000, 4.00000000000000000000, 1698.00000000000000000000, 1684.00000000000000000000, 0.00000000000000000000
111.00000000000000000000, 0.00000000000000000000, 4372.00000000000000000000, 211.65263157894736000000, 4062.00000000000000000000, -312.55789473684212000000, 4537.00000000000000000000, 53.60000000000000100000, 4427.00000000000000000000, 57.29473684210526600000, 3919.00000000000000000000, -62.30526315789473600000, 4479.00000000000000000000, 154.72631578947369000000, 4745.00000000000000000000, -197.57894736842104000000, 484.00000000000000000000, 4.00000000000000000000, 4.00000000000000000000, 4.00000000000000000000, 4.00000000000000000000, 4.00000000000000000000, 4.00000000000000000000, 4.00000000000000000000, 4.00000000000000000000, 4.00000000000000000000, 4.00000000000000000000, 4.00000000000000000000, 4.00000000000000000000, 4.00000000000000000000, 4.00000000000000000000, 4.00000000000000000000, 4.00000000000000000000, 1700.00000000000000000000, 1684.00000000000000000000, 0.00000000000000000000
112.00000000000000000000, 0.00000000000000000000, 4383.00000000000000000000, 228.06315789473683000000, 4071.00000000000000000000, -295.12631578947367000000, 4550.00000000000000000000, 56.15789473684210300000, 4404.00000000000000000000, 44.98947368421052300000, 3932.00000000000000000000, -47.43157894736842200000, 4495.00000000000000000000, 170.63157894736841000000, 4762.00000000000000000000, -181.68421052631578000000, 457.00000000000000000000, 4.00000000000000000000, 4.00000000000000000000, 4.00000000000000000000, 4.00000000000000000000, 4.00000000000000000000, 4.00000000000000000000, 4.00000000000000000000, 4.00000000000000000000, 4.00000000000000000000, 4.00000000000000000000, 4.00000000000000000000, 4.00000000000000000000, 4.00000000000000000000, 4.00000000000000000000, 4.00000000000000000000, 4.00000000000000000000, 1698.00000000000000000000, 1684.00000000000000000000, 0.00000000000000000000
113.00000000000000000000, 0.00000000000000000000, 4389.00000000000000000000, 242.93684210526317000000, 4081.00000000000000000000, -286.39999999999998000000, 4549.00000000000000000000, 51.03157894736842300000, 4402.00000000000000000000, 13.18947368421052600000, 3915.00000000000000000000, -38.20000000000000300000, 4507.00000000000000000000, 177.29473684210527000000, 4778.00000000000000000000, -176.54736842105262000000, 402.00000000000000000000, 4.00000000000000000000, 4.00000000000000000000, 4.00000000000000000000, 4.00000000000000000000, 4.00000000000000000000, 4.00000000000000000000, 4.00000000000000000000, 4.00000000000000000000, 4.00000000000000000000, 4.00000000000000000000, 4.00000000000000000000, 4.00000000000000000000, 4.00000000000000000000, 4.00000000000000000000, 4.00000000000000000000, 4.00000000000000000000, 1699.00000000000000000000, 1687.00000000000000000000, 0.00000000000000000000
114.00000000000000000000, 0.00000000000000000000, 4390.00000000000000000000, 239.34736842105264000000, 4075.00000000000000000000, -292.04210526315791000000, 4540.00000000000000000000, 46.92631578947368400000, 4409.00000000000000000000, 13.18947368421052600000, 3905.00000000000000000000, -39.73684210526315800000, 4506.00000000000000000000, 170.63157894736841000000, 4778.00000000000000000000, -182.70526315789473000000, 481.00000000000000000000, 4.00000000000000000000, 4.00000000000000000000, 4.00000000000000000000, 4.00000000000000000000, 4.00000000000000000000, 4.00000000000000000000, 4.00000000000000000000, 4.00000000000000000000, 4.00000000000000000000, 4.00000000000000000000, 4.00000000000000000000, 4.00000000000000000000, 4.00000000000000000000, 4.00000000000000000000, 4.00000000000000000000, 4.00000000000000000000, 1699.00000000000000000000, 1685.00000000000000000000, 0.00000000000000000000
115.00000000000000000000, 0.00000000000000000000, 4390.00000000000000000000, 230.63157894736841000000, 4066.00000000000000000000, -295.12631578947367000000, 4541.00000000000000000000, 52.05263157894737000000, 4408.00000000000000000000, 35.75789473684210400000, 3918.00000000000000000000, -43.32631578947368200000, 4501.00000000000000000000, 168.06315789473683000000, 4774.00000000000000000000, -186.29473684210527000000, 484.00000000000000000000, 4.00000000000000000000, 4.00000000000000000000, 4.00000000000000000000, 4.00000000000000000000, 4.00000000000000000000, 4.00000000000000000000, 4.00000000000000000000, 4.00000000000000000000, 4.00000000000000000000, 4.00000000000000000000, 4.00000000000000000000, 4.00000000000000000000, 4.00000000000000000000, 4.00000000000000000000, 4.00000000000000000000, 4.00000000000000000000, 1698.00000000000000000000, 1688.00000000000000000000, 0.00000000000000000000
116.00000000000000000000, 0.00000000000000000000, 4388.00000000000000000000, 235.24210526315790000000, 4064.00000000000000000000, -295.63157894736844000000, 4546.00000000000000000000, 55.64210526315789500000, 4408.00000000000000000000, 43.45263157894736800000, 3927.00000000000000000000, -37.68421052631578800000, 4505.00000000000000000000, 168.57894736842104000000, 4782.00000000000000000000, -178.09473684210528000000, 457.00000000000000000000, 4.00000000000000000000, 4.00000000000000000000, 4.00000000000000000000, 4.00000000000000000000, 4.00000000000000000000, 4.00000000000000000000, 4.00000000000000000000, 4.00000000000000000000, 4.00000000000000000000, 4.00000000000000000000, 4.00000000000000000000, 4.00000000000000000000, 4.00000000000000000000, 4.00000000000000000000, 4.00000000000000000000, 4.00000000000000000000, 1699.00000000000000000000, 1687.00000000000000000000, 0.00000000000000000000
117.00000000000000000000, 0.00000000000000000000, 4387.00000000000000000000, 242.42105263157896000000, 4071.00000000000000000000, -295.63157894736844000000, 4543.00000000000000000000, 54.62105263157894800000, 4412.00000000000000000000, 41.39999999999999900000, 3927.00000000000000000000, -32.55789473684210800000, 4512.00000000000000000000, 169.08421052631579000000, 4788.00000000000000000000, -172.45263157894738000000, 402.00000000000000000000, 4.00000000000000000000, 4.00000000000000000000, 4.00000000000000000000, 4.00000000000000000000, 4.00000000000000000000, 4.00000000000000000000, 4.00000000000000000000, 4.00000000000000000000, 4.00000000000000000000, 4.00000000000000000000, 4.00000000000000000000, 4.00000000000000000000, 4.00000000000000000000, 4.00000000000000000000, 4.00000000000000000000, 4.00000000000000000000, 1698.00000000000000000000, 1686.00000000000000000000, 0.00000000000000000000
118.00000000000000000000, 0.00000000000000000000, 4389.00000000000000000000, 244.98947368421054000000, 4073.00000000000000000000, -290.50526315789472000000, 4539.00000000000000000000, 58.21052631578947300000, 4411.00000000000000000000, 41.90526315789473700000, 3929.00000000000000000000, -37.16842105263157900000, 4508.00000000000000000000, 170.11578947368420000000, 4782.00000000000000000000, -173.98947368421054000000, 481.00000000000000000000, 4.00000000000000000000, 4.00000000000000000000, 4.00000000000000000000, 4.00000000000000000000, 4.00000000000000000000, 4.00000000000000000000, 4.00000000000000000000, 4.00000000000000000000, 4.00000000000000000000, 4.00000000000000000000, 4.00000000000000000000, 4.00000000000000000000, 4.00000000000000000000, 4.00000000000000000000, 4.00000000000000000000, 4.00000000000000000000, 1699.00000000000000000000, 1685.00000000000000000000, 0.00000000000000000000
119.00000000000000000000, 0.00000000000000000000, 4388.00000000000000000000, 237.81052631578947000000, 4069.00000000000000000000, -292.55789473684212000000, 4538.00000000000000000000, 62.31578947368421200000, 4421.00000000000000000000, 44.47368421052631500000, 3925.00000000000000000000, -47.94736842105263000000, 4496.00000000000000000000, 166.52631578947367000000, 4768.00000000000000000000, -178.59999999999999000000, 484.00000000000000000000, 4.00000000000000000000, 4.00000000000000000000, 4.00000000000000000000, 4.00000000000000000000, 4.00000000000000000000, 4.00000000000000000000, 4.00000000000000000000, 4.00000000000000000000, 4.00000000000000000000, 4.00000000000000000000, 4.00000000000000000000, 4.00000000000000000000, 4.00000000000000000000, 4.00000000000000000000, 4.00000000000000000000, 4.00000000000000000000, 1699.00000000000000000000, 1685.00000000000000000000, 0.00000000000000000000
120.00000000000000000000, 0.00000000000000000000, 4384.00000000000000000000, 231.13684210526316000000, 4074.00000000000000000000, -295.12631578947367000000, 4533.00000000000000000000, 62.31578947368421200000, 4429.00000000000000000000, 43.95789473684210700000, 3920.00000000000000000000, -55.63157894736841800000, 4490.00000000000000000000, 163.45263157894738000000, 4759.00000000000000000000, -184.24210526315790000000, 457.00000000000000000000, 4.00000000000000000000, 4.00000000000000000000, 4.00000000000000000000, 4.00000000000000000000, 4.00000000000000000000, 4.00000000000000000000, 4.00000000000000000000, 4.00000000000000000000, 4.00000000000000000000, 4.00000000000000000000, 4.00000000000000000000, 4.00000000000000000000, 4.00000000000000000000, 4.00000000000000000000, 4.00000000000000000000, 4.00000000000000000000, 1699.00000000000000000000, 1684.00000000000000000000, 0.00000000000000000000
121.00000000000000000000, 0.00000000000000000000, 4390.00000000000000000000, 239.34736842105264000000, 4078.00000000000000000000, -291.02105263157893000000, 4539.00000000000000000000, 59.74736842105263400000, 4415.00000000000000000000, 34.72631578947368100000, 3919.00000000000000000000, -51.02105263157894700000, 4497.00000000000000000000, 166.01052631578946000000, 4765.00000000000000000000, -181.16842105263157000000, 402.00000000000000000000, 4.00000000000000000000, 4.00000000000000000000, 4.00000000000000000000, 4.00000000000000000000, 4.00000000000000000000, 4.00000000000000000000, 4.00000000000000000000, 4.00000000000000000000, 4.00000000000000000000, 4.00000000000000000000, 4.00000000000000000000, 4.00000000000000000000, 4.00000000000000000000, 4.00000000000000000000, 4.00000000000000000000, 4.00000000000000000000, 1699.00000000000000000000, 1685.00000000000000000000, 0.00000000000000000000
122.00000000000000000000, 0.00000000000000000000, 4393.00000000000000000000, 247.04210526315791000000, 4076.00000000000000000000, -290.50526315789472000000, 4551.00000000000000000000, 61.28421052631578900000, 4404.00000000000000000000, 23.95789473684210700000, 3911.00000000000000000000, -49.98947368421052300000, 4498.00000000000000000000, 167.54736842105262000000, 4769.00000000000000000000, -177.57894736842104000000, 481.00000000000000000000, 4.00000000000000000000, 4.00000000000000000000, 4.00000000000000000000, 4.00000000000000000000, 4.00000000000000000000, 4.00000000000000000000, 4.00000000000000000000, 4.00000000000000000000, 4.00000000000000000000, 4.00000000000000000000, 4.00000000000000000000, 4.00000000000000000000, 4.00000000000000000000, 4.00000000000000000000, 4.00000000000000000000, 4.00000000000000000000, 1700.00000000000000000000, 1685.00000000000000000000, 0.00000000000000000000
123.00000000000000000000, 0.00000000000000000000, 4384.00000000000000000000, 242.93684210526317000000, 4075.00000000000000000000, -292.04210526315791000000, 4558.00000000000000000000, 69.49473684210526900000, 4409.00000000000000000000, 20.36842105263157900000, 3904.00000000000000000000, -56.14736842105263300000, 4490.00000000000000000000, 162.93684210526317000000, 4761.00000000000000000000, -185.77894736842106000000, 484.00000000000000000000, 4.00000000000000000000, 4.00000000000000000000, 4.00000000000000000000, 4.00000000000000000000, 4.00000000000000000000, 4.00000000000000000000, 4.00000000000000000000, 4.00000000000000000000, 4.00000000000000000000, 4.00000000000000000000, 4.00000000000000000000, 4.00000000000000000000, 4.00000000000000000000, 4.00000000000000000000, 4.00000000000000000000, 4.00000000000000000000, 1699.00000000000000000000, 1685.00000000000000000000, 0.00000000000000000000
124.00000000000000000000, 0.00000000000000000000, 4379.00000000000000000000, 241.90526315789472000000, 4074.00000000000000000000, -291.02105263157893000000, 4558.00000000000000000000, 75.64210526315790200000, 4409.00000000000000000000, 24.47368421052631500000, 3914.00000000000000000000, -54.61052631578947100000, 4491.00000000000000000000, 160.88421052631580000000, 4760.00000000000000000000, -187.83157894736843000000, 457.00000000000000000000, 4.00000000000000000000, 4.00000000000000000000, 4.00000000000000000000, 4.00000000000000000000, 4.00000000000000000000, 4.00000000000000000000, 4.00000000000000000000, 4.00000000000000000000, 4.00000000000000000000, 4.00000000000000000000, 4.00000000000000000000, 4.00000000000000000000, 4.00000000000000000000, 4.00000000000000000000, 4.00000000000000000000, 4.00000000000000000000, 1699.00000000000000000000, 1686.00000000000000000000, 0.00000000000000000000
125.00000000000000000000, 0.00000000000000000000, 4385.00000000000000000000, 245.49473684210525000000, 4077.00000000000000000000, -294.09473684210525000000, 4549.00000000000000000000, 74.62105263157894800000, 4413.00000000000000000000, 33.70526315789473400000, 3924.00000000000000000000, -47.94736842105263000000, 4498.00000000000000000000, 167.54736842105262000000, 4769.00000000000000000000, -177.57894736842104000000, 402.00000000000000000000, 4.00000000000000000000, 4.00000000000000000000, 4.00000000000000000000, 4.00000000000000000000, 4.00000000000000000000, 4.00000000000000000000, 4.00000000000000000000, 4.00000000000000000000, 4.00000000000000000000, 4.00000000000000000000, 4.00000000000000000000, 4.00000000000000000000, 4.00000000000000000000, 4.00000000000000000000, 4.00000000000000000000, 4.00000000000000000000, 1700.00000000000000000000, 1686.00000000000000000000, 0.00000000000000000000
126.00000000000000000000, 0.00000000000000000000, 4389.00000000000000000000, 248.57894736842104000000, 4081.00000000000000000000, -296.14736842105265000000, 4542.00000000000000000000, 73.08421052631578600000, 4415.00000000000000000000, 31.65263157894736800000, 3924.00000000000000000000, -42.81052631578947400000, 4506.00000000000000000000, 171.13684210526316000000, 4781.00000000000000000000, -170.40000000000001000000, 481.00000000000000000000, 4.00000000000000000000, 4.00000000000000000000, 4.00000000000000000000, 4.00000000000000000000, 4.00000000000000000000, 4.00000000000000000000, 4.00000000000000000000, 4.00000000000000000000, 4.00000000000000000000, 4.00000000000000000000, 4.00000000000000000000, 4.00000000000000000000, 4.00000000000000000000, 4.00000000000000000000, 4.00000000000000000000, 4.00000000000000000000, 1699.00000000000000000000, 1688.00000000000000000000, 0.00000000000000000000
127.00000000000000000000, 0.00000000000000000000, 4391.00000000000000000000, 251.13684210526316000000, 4088.00000000000000000000, -291.02105263157893000000, 4545.00000000000000000000, 72.05263157894737000000, 4408.00000000000000000000, 21.39999999999999900000, 3922.00000000000000000000, -40.25263157894736600000, 4513.00000000000000000000, 174.72631578947369000000, 4784.00000000000000000000, -165.77894736842106000000, 484.00000000000000000000, 4.00000000000000000000, 4.00000000000000000000, 4.00000000000000000000, 4.00000000000000000000, 4.00000000000000000000, 4.00000000000000000000, 4.00000000000000000000, 4.00000000000000000000, 4.00000000000000000000, 4.00000000000000000000, 4.00000000000000000000, 4.00000000000000000000, 4.00000000000000000000, 4.00000000000000000000, 4.00000000000000000000, 4.00000000000000000000, 1700.00000000000000000000, 1687.00000000000000000000, 0.00000000000000000000
128.00000000000000000000, 0.00000000000000000000, 4391.00000000000000000000, 248.06315789473683000000, 4087.00000000000000000000, -292.04210526315791000000, 4542.00000000000000000000, 68.97894736842104600000, 4412.00000000000000000000, 28.06315789473684300000, 3927.00000000000000000000, -39.22105263157894900000, 4512.00000000000000000000, 178.83157894736843000000, 4781.00000000000000000000, -163.72631578947369000000, 457.00000000000000000000, 4.00000000000000000000, 4.00000000000000000000, 4.00000000000000000000, 4.00000000000000000000, 4.00000000000000000000, 4.00000000000000000000, 4.00000000000000000000, 4.00000000000000000000, 4.00000000000000000000, 4.00000000000000000000, 4.00000000000000000000, 4.00000000000000000000, 4.00000000000000000000, 4.00000000000000000000, 4.00000000000000000000, 4.00000000000000000000, 1699.00000000000000000000, 1687.00000000000000000000, 0.00000000000000000000
0.00000000000000000000, 0.00000000000000000000, 4389.00000000000000000000, 243.95789473684209000000, 4076.00000000000000000000, -299.73684210526318000000, 4538.00000000000000000000, 74.10526315789474000000, 4417.00000000000000000000, 35.75789473684210400000, 3931.00000000000000000000, -36.66315789473684100000, 4508.00000000000000000000, 173.70526315789473000000, 4780.00000000000000000000, -165.27368421052631000000, 438.00000000000000000000, 4.00000000000000000000, 4.00000000000000000000, 4.00000000000000000000, 4.00000000000000000000, 4.00000000000000000000, 4.00000000000000000000, 4.00000000000000000000, 4.00000000000000000000, 4.00000000000000000000, 4.00000000000000000000, 4.00000000000000000000, 4.00000000000000000000, 4.00000000000000000000, 4.00000000000000000000, 4.00000000000000000000, 4.00000000000000000000, 1700.00000000000000000000, 1687.00000000000000000000, 0.00000000000000000000
1.00000000000000000000, 0.00000000000000000000, 4390.00000000000000000000, 248.06315789473683000000, 4077.00000000000000000000, -297.68421052631578000000, 4546.00000000000000000000, 79.23157894736841900000, 4409.00000000000000000000, 27.04210526315789300000, 3922.00000000000000000000, -39.22105263157894900000, 4508.00000000000000000000, 170.63157894736841000000, 4779.00000000000000000000, -166.81052631578947000000, 470.00000000000000000000, 4.00000000000000000000, 4.00000000000000000000, 4.00000000000000000000, 4.00000000000000000000, 4.00000000000000000000, 4.00000000000000000000, 4.00000000000000000000, 4.00000000000000000000, 4.00000000000000000000, 4.00000000000000000000, 4.00000000000000000000, 4.00000000000000000000, 4.00000000000000000000, 4.00000000000000000000, 4.00000000000000000000, 4.00000000000000000000, 1700.00000000000000000000, 1686.00000000000000000000, 0.00000000000000000000
2.00000000000000000000, 0.00000000000000000000, 4391.00000000000000000000, 249.59999999999999000000, 4081.00000000000000000000, -292.55789473684212000000, 4549.00000000000000000000, 79.23157894736841900000, 4410.00000000000000000000, 27.54736842105263200000, 3917.00000000000000000000, -43.84210526315789700000, 4507.00000000000000000000, 168.57894736842104000000, 4774.00000000000000000000, -169.88421052631580000000, 496.00000000000000000000, 4.00000000000000000000, 4.00000000000000000000, 4.00000000000000000000, 4.00000000000000000000, 4.00000000000000000000, 4.00000000000000000000, 4.00000000000000000000, 4.00000000000000000000, 4.00000000000000000000, 4.00000000000000000000, 4.00000000000000000000, 4.00000000000000000000, 4.00000000000000000000, 4.00000000000000000000, 4.00000000000000000000, 4.00000000000000000000, 1699.00000000000000000000, 1686.00000000000000000000, 0.00000000000000000000
3.00000000000000000000, 0.00000000000000000000, 4389.00000000000000000000, 248.06315789473683000000, 4085.00000000000000000000, -293.07368421052632000000, 4545.00000000000000000000, 86.42105263157894500000, 4417.00000000000000000000, 32.16842105263157900000, 3921.00000000000000000000, -44.86315789473684400000, 4505.00000000000000000000, 170.11578947368420000000, 4770.00000000000000000000, -169.88421052631580000000, 502.00000000000000000000, 4.00000000000000000000, 4.00000000000000000000, 4.00000000000000000000, 4.00000000000000000000, 4.00000000000000000000, 4.00000000000000000000, 4.00000000000000000000, 4.00000000000000000000, 4.00000000000000000000, 4.00000000000000000000, 4.00000000000000000000, 4.00000000000000000000, 4.00000000000000000000, 4.00000000000000000000, 4.00000000000000000000, 4.00000000000000000000, 1699.00000000000000000000, 1686.00000000000000000000, 0.00000000000000000000
4.00000000000000000000, 0.00000000000000000000, 4389.00000000000000000000, 254.72631578947369000000, 4091.00000000000000000000, -292.04210526315791000000, 4547.00000000000000000000, 95.13684210526315600000, 4409.00000000000000000000, 22.42105263157894900000, 3916.00000000000000000000, -48.96842105263157700000, 4503.00000000000000000000, 174.72631578947369000000, 4770.00000000000000000000, -167.83157894736843000000, 510.00000000000000000000, 4.00000000000000000000, 4.00000000000000000000, 4.00000000000000000000, 4.00000000000000000000, 4.00000000000000000000, 4.00000000000000000000, 4.00000000000000000000, 4.00000000000000000000, 4.00000000000000000000, 4.00000000000000000000, 4.00000000000000000000, 4.00000000000000000000, 4.00000000000000000000, 4.00000000000000000000, 4.00000000000000000000, 4.00000000000000000000, 1700.00000000000000000000, 1687.00000000000000000000, 0.00000000000000000000
5.00000000000000000000, 0.00000000000000000000, 4386.00000000000000000000, 259.86315789473684000000, 4086.00000000000000000000, -291.02105263157893000000, 4554.00000000000000000000, 93.59999999999999400000, 4399.00000000000000000000, 20.36842105263157900000, 3911.00000000000000000000, -55.63157894736841800000, 4500.00000000000000000000, 167.54736842105262000000, 4769.00000000000000000000, -171.42105263157896000000, 460.00000000000000000000, 4.00000000000000000000, 4.00000000000000000000, 4.00000000000000000000, 4.00000000000000000000, 4.00000000000000000000, 4.00000000000000000000, 4.00000000000000000000, 4.00000000000000000000, 4.00000000000000000000, 4.00000000000000000000, 4.00000000000000000000, 4.00000000000000000000, 4.00000000000000000000, 4.00000000000000000000, 4.00000000000000000000, 4.00000000000000000000, 1699.00000000000000000000, 1686.00000000000000000000, 0.00000000000000000000
6.00000000000000000000, 0.00000000000000000000, 4377.00000000000000000000, 252.16842105263157000000, 4079.00000000000000000000, -297.16842105263157000000, 4549.00000000000000000000, 91.03157894736841600000, 4408.00000000000000000000, 27.04210526315789300000, 3909.00000000000000000000, -62.30526315789473600000, 4492.00000000000000000000, 159.86315789473684000000, 4762.00000000000000000000, -181.16842105263157000000, 433.00000000000000000000, 4.00000000000000000000, 4.00000000000000000000, 4.00000000000000000000, 4.00000000000000000000, 4.00000000000000000000, 4.00000000000000000000, 4.00000000000000000000, 4.00000000000000000000, 4.00000000000000000000, 4.00000000000000000000, 4.00000000000000000000, 4.00000000000000000000, 4.00000000000000000000, 4.00000000000000000000, 4.00000000000000000000, 4.00000000000000000000, 1699.00000000000000000000, 1687.00000000000000000000, 0.00000000000000000000
7.00000000000000000000, 0.00000000000000000000, 4375.00000000000000000000, 249.08421052631579000000, 4077.00000000000000000000, -296.66315789473686000000, 4541.00000000000000000000, 93.59999999999999400000, 4411.00000000000000000000, 22.93684210526315700000, 3904.00000000000000000000, -65.37894736842105200000, 4488.00000000000000000000, 160.36842105263159000000, 4759.00000000000000000000, -180.13684210526316000000, 375.00000000000000000000, 4.00000000000000000000, 4.00000000000000000000, 4.00000000000000000000, 4.00000000000000000000, 4.00000000000000000000, 4.00000000000000000000, 4.00000000000000000000, 4.00000000000000000000, 4.00000000000000000000, 4.00000000000000000000, 4.00000000000000000000, 4.00000000000000000000, 4.00000000000000000000, 4.00000000000000000000, 4.00000000000000000000, 4.00000000000000000000, 1700.00000000000000000000, 1686.00000000000000000000, 0.00000000000000000000
8.00000000000000000000, 0.00000000000000000000, 4379.00000000000000000000, 253.18947368421053000000, 4074.00000000000000000000, -289.48421052631579000000, 4543.00000000000000000000, 93.59999999999999400000, 4401.00000000000000000000, 20.36842105263157900000, 3906.00000000000000000000, -62.81052631578947400000, 4494.00000000000000000000, 163.45263157894738000000, 4764.00000000000000000000, -172.95789473684209000000, 436.00000000000000000000, 4.00000000000000000000, 4.00000000000000000000, 4.00000000000000000000, 4.00000000000000000000, 4.00000000000000000000, 4.00000000000000000000, 4.00000000000000000000, 4.00000000000000000000, 4.00000000000000000000, 4.00000000000000000000, 4.00000000000000000000, 4.00000000000000000000, 4.00000000000000000000, 4.00000000000000000000, 4.00000000000000000000, 4.00000000000000000000, 1699.00000000000000000000, 1688.00000000000000000000, 0.00000000000000000000
9.00000000000000000000, 0.00000000000000000000, 4373.00000000000000000000, 248.06315789473683000000, 4070.00000000000000000000, -297.68421052631578000000, 4542.00000000000000000000, 92.05263157894737000000, 4400.00000000000000000000, 22.42105263157894900000, 3908.00000000000000000000, -62.30526315789473600000, 4494.00000000000000000000, 161.40000000000001000000, 4761.00000000000000000000, -178.59999999999999000000, 442.00000000000000000000, 4.00000000000000000000, 4.00000000000000000000, 4.00000000000000000000, 4.00000000000000000000, 4.00000000000000000000, 4.00000000000000000000, 4.00000000000000000000, 4.00000000000000000000, 4.00000000000000000000, 4.00000000000000000000, 4.00000000000000000000, 4.00000000000000000000, 4.00000000000000000000, 4.00000000000000000000, 4.00000000000000000000, 4.00000000000000000000, 1700.00000000000000000000, 1687.00000000000000000000, 0.00000000000000000000
10.00000000000000000000, 0.00000000000000000000, 4368.00000000000000000000, 247.54736842105262000000, 4072.00000000000000000000, -303.84210526315792000000, 4540.00000000000000000000, 90.51578947368420800000, 4398.00000000000000000000, 17.29473684210526200000, 3910.00000000000000000000, -59.22105263157894900000, 4493.00000000000000000000, 156.77894736842106000000, 4758.00000000000000000000, -184.75789473684210000000, 477.00000000000000000000, 4.00000000000000000000, 4.00000000000000000000, 4.00000000000000000000, 4.00000000000000000000, 4.00000000000000000000, 4.00000000000000000000, 4.00000000000000000000, 4.00000000000000000000, 4.00000000000000000000, 4.00000000000000000000, 4.00000000000000000000, 4.00000000000000000000, 4.00000000000000000000, 4.00000000000000000000, 4.00000000000000000000, 4.00000000000000000000, 1699.00000000000000000000, 1688.00000000000000000000, 0.00000000000000000000
11.00000000000000000000, 0.00000000000000000000, 4376.00000000000000000000, 258.31578947368422000000, 4082.00000000000000000000, -294.61052631578946000000, 4541.00000000000000000000, 92.56842105263157800000, 4397.00000000000000000000, 19.34736842105263200000, 3918.00000000000000000000, -51.53684210526315500000, 4501.00000000000000000000, 163.45263157894738000000, 4768.00000000000000000000, -179.63157894736841000000, 484.00000000000000000000, 4.00000000000000000000, 4.00000000000000000000, 4.00000000000000000000, 4.00000000000000000000, 4.00000000000000000000, 4.00000000000000000000, 4.00000000000000000000, 4.00000000000000000000, 4.00000000000000000000, 4.00000000000000000000, 4.00000000000000000000, 4.00000000000000000000, 4.00000000000000000000, 4.00000000000000000000, 4.00000000000000000000, 4.00000000000000000000, 1699.00000000000000000000, 1688.00000000000000000000, 0.00000000000000000000
12.00000000000000000000, 0.00000000000000000000, 4381.00000000000000000000, 259.34736842105264000000, 4080.00000000000000000000, -295.63157894736844000000, 4542.00000000000000000000, 104.36842105263158000000, 4410.00000000000000000000, 33.70526315789473400000, 3926.00000000000000000000, -50.50526315789473800000, 4504.00000000000000000000, 169.08421052631579000000, 4773.00000000000000000000, -175.52631578947367000000, 457.00000000000000000000, 4.00000000000000000000, 4.00000000000000000000, 4.00000000000000000000, 4.00000000000000000000, 4.00000000000000000000, 4.00000000000000000000, 4.00000000000000000000, 4.00000000000000000000, 4.00000000000000000000, 4.00000000000000000000, 4.00000000000000000000, 4.00000000000000000000, 4.00000000000000000000, 4.00000000000000000000, 4.00000000000000000000, 4.00000000000000000000, 1698.00000000000000000000, 1687.00000000000000000000, 0.00000000000000000000
13.00000000000000000000, 0.00000000000000000000, 4376.00000000000000000000, 253.18947368421053000000, 4075.00000000000000000000, -303.84210526315792000000, 4541.00000000000000000000, 112.05263157894737000000, 4417.00000000000000000000, 36.27368421052631900000, 3927.00000000000000000000, -55.12631578947368600000, 4502.00000000000000000000, 166.01052631578946000000, 4768.00000000000000000000, -175.01052631578946000000, 400.00000000000000000000, 4.00000000000000000000, 4.00000000000000000000, 4.00000000000000000000, 4.00000000000000000000, 4.00000000000000000000, 4.00000000000000000000, 4.00000000000000000000, 4.00000000000000000000, 4.00000000000000000000, 4.00000000000000000000, 4.00000000000000000000, 4.00000000000000000000, 4.00000000000000000000, 4.00000000000000000000, 4.00000000000000000000, 4.00000000000000000000, 1698.00000000000000000000, 1687.00000000000000000000, 0.00000000000000000000
14.00000000000000000000, 0.00000000000000000000, 4379.00000000000000000000, 262.42105263157896000000, 4082.00000000000000000000, -295.12631578947367000000, 4542.00000000000000000000, 106.92631578947369000000, 4401.00000000000000000000, 24.98947368421052700000, 3923.00000000000000000000, -55.63157894736841800000, 4506.00000000000000000000, 167.04210526315791000000, 4770.00000000000000000000, -166.81052631578947000000, 477.00000000000000000000, 4.00000000000000000000, 4.00000000000000000000, 4.00000000000000000000, 4.00000000000000000000, 4.00000000000000000000, 4.00000000000000000000, 4.00000000000000000000, 4.00000000000000000000, 4.00000000000000000000, 4.00000000000000000000, 4.00000000000000000000, 4.00000000000000000000, 4.00000000000000000000, 4.00000000000000000000, 4.00000000000000000000, 4.00000000000000000000, 1698.00000000000000000000, 1685.00000000000000000000, 0.00000000000000000000
15.00000000000000000000, 0.00000000000000000000, 4388.00000000000000000000, 273.18947368421055000000, 4078.00000000000000000000, -282.81052631578945000000, 4545.00000000000000000000, 104.36842105263158000000, 4387.00000000000000000000, 16.27368421052631600000, 3914.00000000000000000000, -52.55789473684210800000, 4511.00000000000000000000, 167.54736842105262000000, 4778.00000000000000000000, -161.68421052631578000000, 484.00000000000000000000, 4.00000000000000000000, 4.00000000000000000000, 4.00000000000000000000, 4.00000000000000000000, 4.00000000000000000000, 4.00000000000000000000, 4.00000000000000000000, 4.00000000000000000000, 4.00000000000000000000, 4.00000000000000000000, 4.00000000000000000000, 4.00000000000000000000, 4.00000000000000000000, 4.00000000000000000000, 4.00000000000000000000, 4.00000000000000000000, 1698.00000000000000000000, 1685.00000000000000000000, 0.00000000000000000000
16.00000000000000000000, 0.00000000000000000000, 4377.00000000000000000000, 263.45263157894738000000, 4065.00000000000000000000, -294.09473684210525000000, 4539.00000000000000000000, 107.95789473684211000000, 4405.00000000000000000000, 21.39999999999999900000, 3907.00000000000000000000, -62.30526315789473600000, 4502.00000000000000000000, 159.86315789473684000000, 4768.00000000000000000000, -177.06315789473683000000, 0.00000000000000000000, 4.00000000000000000000, 4.00000000000000000000, 4.00000000000000000000, 4.00000000000000000000, 4.00000000000000000000, 4.00000000000000000000, 4.00000000000000000000, 4.00000000000000000000, 4.00000000000000000000, 4.00000000000000000000, 4.00000000000000000000, 4.00000000000000000000, 4.00000000000000000000, 4.00000000000000000000, 4.00000000000000000000, 4.00000000000000000000, 1698.00000000000000000000, 1685.00000000000000000000, 0.00000000000000000000
17.00000000000000000000, 0.00000000000000000000, 4361.00000000000000000000, 257.29473684210524000000, 4058.00000000000000000000, -303.32631578947371000000, 4540.00000000000000000000, 109.49473684210527000000, 4408.00000000000000000000, 18.83157894736842100000, 3909.00000000000000000000, -68.45263157894736100000, 4499.00000000000000000000, 157.29473684210527000000, 4761.00000000000000000000, -184.24210526315790000000, 0.00000000000000000000, 4.00000000000000000000, 4.00000000000000000000, 4.00000000000000000000, 4.00000000000000000000, 4.00000000000000000000, 4.00000000000000000000, 4.00000000000000000000, 4.00000000000000000000, 4.00000000000000000000, 4.00000000000000000000, 4.00000000000000000000, 4.00000000000000000000, 4.00000000000000000000, 4.00000000000000000000, 4.00000000000000000000, 4.00000000000000000000, 1698.00000000000000000000, 1687.00000000000000000000, 0.00000000000000000000
18.00000000000000000000, 0.00000000000000000000, 4371.00000000000000000000, 269.08421052631581000000, 4060.00000000000000000000, -292.04210526315791000000, 4550.00000000000000000000, 109.49473684210527000000, 4389.00000000000000000000, 5.49473684210526340000, 3911.00000000000000000000, -56.66315789473684100000, 4512.00000000000000000000, 163.95789473684209000000, 4776.00000000000000000000, -167.31578947368422000000, 0.00000000000000000000, 4.00000000000000000000, 4.00000000000000000000, 4.00000000000000000000, 4.00000000000000000000, 4.00000000000000000000, 4.00000000000000000000, 4.00000000000000000000, 4.00000000000000000000, 4.00000000000000000000, 4.00000000000000000000, 4.00000000000000000000, 4.00000000000000000000, 4.00000000000000000000, 4.00000000000000000000, 4.00000000000000000000, 4.00000000000000000000, 1699.00000000000000000000, 1687.00000000000000000000, 0.00000000000000000000
19.00000000000000000000, 0.00000000000000000000, 4386.00000000000000000000, 277.29473684210524000000, 4065.00000000000000000000, -284.35789473684213000000, 4551.00000000000000000000, 108.97894736842105000000, 4386.00000000000000000000, 8.06315789473684140000, 3909.00000000000000000000, -50.50526315789473800000, 4519.00000000000000000000, 169.08421052631579000000, 4782.00000000000000000000, -159.11578947368420000000, 0.00000000000000000000, 4.00000000000000000000, 4.00000000000000000000, 4.00000000000000000000, 4.00000000000000000000, 4.00000000000000000000, 4.00000000000000000000, 4.00000000000000000000, 4.00000000000000000000, 4.00000000000000000000, 4.00000000000000000000, 4.00000000000000000000, 4.00000000000000000000, 4.00000000000000000000, 4.00000000000000000000, 4.00000000000000000000, 4.00000000000000000000, 1698.00000000000000000000, 1689.00000000000000000000, 0.00000000000000000000
20.00000000000000000000, 0.00000000000000000000, 4384.00000000000000000000, 279.34736842105264000000, 4067.00000000000000000000, -286.39999999999998000000, 4549.00000000000000000000, 108.97894736842105000000, 4393.00000000000000000000, 21.90526315789473700000, 3916.00000000000000000000, -52.04210526315789300000, 4516.00000000000000000000, 163.95789473684209000000, 4775.00000000000000000000, -166.81052631578947000000, 0.00000000000000000000, 4.00000000000000000000, 4.00000000000000000000, 4.00000000000000000000, 4.00000000000000000000, 4.00000000000000000000, 4.00000000000000000000, 4.00000000000000000000, 4.00000000000000000000, 4.00000000000000000000, 4.00000000000000000000, 4.00000000000000000000, 4.00000000000000000000, 4.00000000000000000000, 4.00000000000000000000, 4.00000000000000000000, 4.00000000000000000000, 1700.00000000000000000000, 1689.00000000000000000000, 0.00000000000000000000
21.00000000000000000000, 0.00000000000000000000, 4383.00000000000000000000, 282.42105263157896000000, 4070.00000000000000000000, -287.43157894736839000000, 4552.00000000000000000000, 114.62105263157895000000, 4397.00000000000000000000, 26.52631578947368500000, 3923.00000000000000000000, -51.02105263157894700000, 4511.00000000000000000000, 160.36842105263159000000, 4772.00000000000000000000, -170.40000000000001000000, 0.00000000000000000000, 4.00000000000000000000, 4.00000000000000000000, 4.00000000000000000000, 4.00000000000000000000, 4.00000000000000000000, 4.00000000000000000000, 4.00000000000000000000, 4.00000000000000000000, 4.00000000000000000000, 4.00000000000000000000, 4.00000000000000000000, 4.00000000000000000000, 4.00000000000000000000, 4.00000000000000000000, 4.00000000000000000000, 4.00000000000000000000, 1698.00000000000000000000, 1689.00000000000000000000, 0.00000000000000000000
22.00000000000000000000, 0.00000000000000000000, 4387.00000000000000000000, 280.88421052631577000000, 4076.00000000000000000000, -287.94736842105266000000, 4551.00000000000000000000, 118.72631578947369000000, 4403.00000000000000000000, 31.13684210526316000000, 3921.00000000000000000000, -48.96842105263157700000, 4510.00000000000000000000, 160.88421052631580000000, 4771.00000000000000000000, -169.36842105263159000000, 0.00000000000000000000, 4.00000000000000000000, 4.00000000000000000000, 4.00000000000000000000, 4.00000000000000000000, 4.00000000000000000000, 4.00000000000000000000, 4.00000000000000000000, 4.00000000000000000000, 4.00000000000000000000, 4.00000000000000000000, 4.00000000000000000000, 4.00000000000000000000, 4.00000000000000000000, 4.00000000000000000000, 4.00000000000000000000, 4.00000000000000000000, 1700.00000000000000000000, 1689.00000000000000000000, 0.00000000000000000000
23.00000000000000000000, 0.00000000000000000000, 4383.00000000000000000000, 274.72631578947369000000, 4072.00000000000000000000, -290.50526315789472000000, 4547.00000000000000000000, 113.08421052631579000000, 4407.00000000000000000000, 42.42105263157894500000, 3927.00000000000000000000, -46.91578947368421400000, 4514.00000000000000000000, 157.81052631578947000000, 4771.00000000000000000000, -173.47368421052633000000, 0.00000000000000000000, 4.00000000000000000000, 4.00000000000000000000, 4.00000000000000000000, 4.00000000000000000000, 4.00000000000000000000, 4.00000000000000000000, 4.00000000000000000000, 4.00000000000000000000, 4.00000000000000000000, 4.00000000000000000000, 4.00000000000000000000, 4.00000000000000000000, 4.00000000000000000000, 4.00000000000000000000, 4.00000000000000000000, 4.00000000000000000000, 1699.00000000000000000000, 1687.00000000000000000000, 0.00000000000000000000
24.00000000000000000000, 0.00000000000000000000, 4373.00000000000000000000, 272.16842105263157000000, 4061.00000000000000000000, -295.12631578947367000000, 4549.00000000000000000000, 110.01052631578948000000, 4403.00000000000000000000, 34.22105263157894900000, 3927.00000000000000000000, -53.07368421052631600000, 4509.00000000000000000000, 155.75789473684210000000, 4767.00000000000000000000, -179.63157894736841000000, 0.00000000000000000000, 4.00000000000000000000, 4.00000000000000000000, 4.00000000000000000000, 4.00000000000000000000, 4.00000000000000000000, 4.00000000000000000000, 4.00000000000000000000, 4.00000000000000000000, 4.00000000000000000000, 4.00000000000000000000, 4.00000000000000000000, 4.00000000000000000000, 4.00000000000000000000, 4.00000000000000000000, 4.00000000000000000000, 4.00000000000000000000, 1700.00000000000000000000, 1686.00000000000000000000, 0.00000000000000000000
25.00000000000000000000, 0.00000000000000000000, 4367.00000000000000000000, 270.63157894736844000000, 4052.00000000000000000000, -300.76842105263160000000, 4553.00000000000000000000, 117.18947368421053000000, 4402.00000000000000000000, 15.75789473684210600000, 3910.00000000000000000000, -62.30526315789473600000, 4498.00000000000000000000, 152.16842105263157000000, 4758.00000000000000000000, -184.24210526315790000000, 0.00000000000000000000, 4.00000000000000000000, 4.00000000000000000000, 4.00000000000000000000, 4.00000000000000000000, 4.00000000000000000000, 4.00000000000000000000, 4.00000000000000000000, 4.00000000000000000000, 4.00000000000000000000, 4.00000000000000000000, 4.00000000000000000000, 4.00000000000000000000, 4.00000000000000000000, 4.00000000000000000000, 4.00000000000000000000, 4.00000000000000000000, 1700.00000000000000000000, 1684.00000000000000000000, 0.00000000000000000000
26.00000000000000000000, 0.00000000000000000000, 4362.00000000000000000000, 266.01052631578949000000, 4052.00000000000000000000, -299.73684210526318000000, 4550.00000000000000000000, 122.31578947368421000000, 4409.00000000000000000000, 22.93684210526315700000, 3908.00000000000000000000, -60.25263157894736600000, 4500.00000000000000000000, 151.65263157894736000000, 4759.00000000000000000000, -184.24210526315790000000, 0.00000000000000000000, 4.00000000000000000000, 4.00000000000000000000, 4.00000000000000000000, 4.00000000000000000000, 4.00000000000000000000, 4.00000000000000000000, 4.00000000000000000000, 4.00000000000000000000, 4.00000000000000000000, 4.00000000000000000000, 4.00000000000000000000, 4.00000000000000000000, 4.00000000000000000000, 4.00000000000000000000, 4.00000000000000000000, 4.00000000000000000000, 1700.00000000000000000000, 1685.00000000000000000000, 0.00000000000000000000
27.00000000000000000000, 0.00000000000000000000, 4361.00000000000000000000, 263.95789473684209000000, 4049.00000000000000000000, -298.19999999999999000000, 4547.00000000000000000000, 118.21052631578948000000, 4402.00000000000000000000, 26.52631578947368500000, 3917.00000000000000000000, -53.07368421052631600000, 4510.00000000000000000000, 157.29473684210527000000, 4771.00000000000000000000, -181.68421052631578000000, 0.00000000000000000000, 4.00000000000000000000, 4.00000000000000000000, 4.00000000000000000000, 4.00000000000000000000, 4.00000000000000000000, 4.00000000000000000000, 4.00000000000000000000, 4.00000000000000000000, 4.00000000000000000000, 4.00000000000000000000, 4.00000000000000000000, 4.00000000000000000000, 4.00000000000000000000, 4.00000000000000000000, 4.00000000000000000000, 4.00000000000000000000, 1700.00000000000000000000, 1684.00000000000000000000, 0.00000000000000000000
28.00000000000000000000, 0.00000000000000000000, 4362.00000000000000000000, 263.95789473684209000000, 4038.00000000000000000000, -303.32631578947371000000, 4553.00000000000000000000, 119.23157894736842000000, 4382.00000000000000000000, 4.98947368421052670000, 3910.00000000000000000000, -51.02105263157894700000, 4514.00000000000000000000, 156.77894736842106000000, 4778.00000000000000000000, -173.47368421052633000000, 0.00000000000000000000, 4.00000000000000000000, 4.00000000000000000000, 4.00000000000000000000, 4.00000000000000000000, 4.00000000000000000000, 4.00000000000000000000, 4.00000000000000000000, 4.00000000000000000000, 4.00000000000000000000, 4.00000000000000000000, 4.00000000000000000000, 4.00000000000000000000, 4.00000000000000000000, 4.00000000000000000000, 4.00000000000000000000, 4.00000000000000000000, 1701.00000000000000000000, 1686.00000000000000000000, 0.00000000000000000000
29.00000000000000000000, 0.00000000000000000000, 4364.00000000000000000000, 262.93684210526317000000, 4046.00000000000000000000, -300.25263157894739000000, 4551.00000000000000000000, 125.90526315789474000000, 4388.00000000000000000000, 4.98947368421052670000, 3906.00000000000000000000, -51.02105263157894700000, 4515.00000000000000000000, 159.34736842105264000000, 4777.00000000000000000000, -167.83157894736843000000, 0.00000000000000000000, 4.00000000000000000000, 4.00000000000000000000, 4.00000000000000000000, 4.00000000000000000000, 4.00000000000000000000, 4.00000000000000000000, 4.00000000000000000000, 4.00000000000000000000, 4.00000000000000000000, 4.00000000000000000000, 4.00000000000000000000, 4.00000000000000000000, 4.00000000000000000000, 4.00000000000000000000, 4.00000000000000000000, 4.00000000000000000000, 1700.00000000000000000000, 1686.00000000000000000000, 0.00000000000000000000
30.00000000000000000000, 0.00000000000000000000, 4371.00000000000000000000, 270.11578947368423000000, 4063.00000000000000000000, -291.53684210526313000000, 4543.00000000000000000000, 123.33684210526316000000, 4409.00000000000000000000, 31.13684210526316000000, 3929.00000000000000000000, -38.71578947368421100000, 4523.00000000000000000000, 167.54736842105262000000, 4784.00000000000000000000, -166.81052631578947000000, 0.00000000000000000000, 4.00000000000000000000, 4.00000000000000000000, 4.00000000000000000000, 4.00000000000000000000, 4.00000000000000000000, 4.00000000000000000000, 4.00000000000000000000, 4.00000000000000000000, 4.00000000000000000000, 4.00000000000000000000, 4.00000000000000000000, 4.00000000000000000000, 4.00000000000000000000, 4.00000000000000000000, 4.00000000000000000000, 4.00000000000000000000, 1700.00000000000000000000, 1688.00000000000000000000, 0.00000000000000000000
31.00000000000000000000, 0.00000000000000000000, 4380.00000000000000000000, 286.01052631578949000000, 4068.00000000000000000000, -289.98947368421051000000, 4544.00000000000000000000, 113.08421052631579000000, 4411.00000000000000000000, 42.93684210526316000000, 3944.00000000000000000000, -28.96842105263158000000, 4529.00000000000000000000, 172.16842105263157000000, 4794.00000000000000000000, -164.75789473684210000000, 0.00000000000000000000, 4.00000000000000000000, 4.00000000000000000000, 4.00000000000000000000, 4.00000000000000000000, 4.00000000000000000000, 4.00000000000000000000, 4.00000000000000000000, 4.00000000000000000000, 4.00000000000000000000, 4.00000000000000000000, 4.00000000000000000000, 4.00000000000000000000, 4.00000000000000000000, 4.00000000000000000000, 4.00000000000000000000, 4.00000000000000000000, 1699.00000000000000000000, 1687.00000000000000000000, 0.00000000000000000000
32.00000000000000000000, 0.00000000000000000000, 4380.00000000000000000000, 290.63157894736844000000, 4068.00000000000000000000, -288.96842105263158000000, 4546.00000000000000000000, 108.97894736842105000000, 4407.00000000000000000000, 39.86315789473684400000, 3935.00000000000000000000, -36.66315789473684100000, 4524.00000000000000000000, 169.08421052631579000000, 4788.00000000000000000000, -162.18947368421053000000, 0.00000000000000000000, 4.00000000000000000000, 4.00000000000000000000, 4.00000000000000000000, 4.00000000000000000000, 4.00000000000000000000, 4.00000000000000000000, 4.00000000000000000000, 4.00000000000000000000, 4.00000000000000000000, 4.00000000000000000000, 4.00000000000000000000, 4.00000000000000000000, 4.00000000000000000000, 4.00000000000000000000, 4.00000000000000000000, 4.00000000000000000000, 1699.00000000000000000000, 1686.00000000000000000000, 0.00000000000000000000
33.00000000000000000000, 0.00000000000000000000, 4373.00000000000000000000, 285.49473684210528000000, 4064.00000000000000000000, -286.91578947368419000000, 4544.00000000000000000000, 110.01052631578948000000, 4400.00000000000000000000, 29.08421052631579000000, 3924.00000000000000000000, -45.37894736842105200000, 4516.00000000000000000000, 161.40000000000001000000, 4777.00000000000000000000, -167.31578947368422000000, 0.00000000000000000000, 4.00000000000000000000, 4.00000000000000000000, 4.00000000000000000000, 4.00000000000000000000, 4.00000000000000000000, 4.00000000000000000000, 4.00000000000000000000, 4.00000000000000000000, 4.00000000000000000000, 4.00000000000000000000, 4.00000000000000000000, 4.00000000000000000000, 4.00000000000000000000, 4.00000000000000000000, 4.00000000000000000000, 4.00000000000000000000, 1698.00000000000000000000, 1684.00000000000000000000, 0.00000000000000000000
34.00000000000000000000, 0.00000000000000000000, 4364.00000000000000000000, 279.34736842105264000000, 4055.00000000000000000000, -295.63157894736844000000, 4541.00000000000000000000, 106.92631578947369000000, 4404.00000000000000000000, 27.04210526315789300000, 3921.00000000000000000000, -50.50526315789473800000, 4507.00000000000000000000, 156.27368421052631000000, 4766.00000000000000000000, -183.22105263157894000000, 0.00000000000000000000, 4.00000000000000000000, 4.00000000000000000000, 4.00000000000000000000, 4.00000000000000000000, 4.00000000000000000000, 4.00000000000000000000, 4.00000000000000000000, 4.00000000000000000000, 4.00000000000000000000, 4.00000000000000000000, 4.00000000000000000000, 4.00000000000000000000, 4.00000000000000000000, 4.00000000000000000000, 4.00000000000000000000, 4.00000000000000000000, 1699.00000000000000000000, 1683.00000000000000000000, 0.00000000000000000000
35.00000000000000000000, 0.00000000000000000000, 4354.00000000000000000000, 275.24210526315790000000, 4048.00000000000000000000, -301.78947368421052000000, 4541.00000000000000000000, 106.42105263157895000000, 4416.00000000000000000000, 47.04210526315789300000, 3931.00000000000000000000, -54.09473684210526300000, 4499.00000000000000000000, 153.18947368421053000000, 4756.00000000000000000000, -195.01052631578946000000, 0.00000000000000000000, 4.00000000000000000000, 4.00000000000000000000, 4.00000000000000000000, 4.00000000000000000000, 4.00000000000000000000, 4.00000000000000000000, 4.00000000000000000000, 4.00000000000000000000, 4.00000000000000000000, 4.00000000000000000000, 4.00000000000000000000, 4.00000000000000000000, 4.00000000000000000000, 4.00000000000000000000, 4.00000000000000000000, 4.00000000000000000000, 1699.00000000000000000000, 1683.00000000000000000000, 0.00000000000000000000
36.00000000000000000000, 0.00000000000000000000, 4348.00000000000000000000, 275.75789473684210000000, 4049.00000000000000000000, -298.71578947368420000000, 4542.00000000000000000000, 110.01052631578948000000, 4412.00000000000000000000, 41.90526315789473700000, 3928.00000000000000000000, -59.22105263157894900000, 4497.00000000000000000000, 148.06315789473683000000, 4751.00000000000000000000, -199.11578947368420000000, 0.00000000000000000000, 4.00000000000000000000, 4.00000000000000000000, 4.00000000000000000000, 4.00000000000000000000, 4.00000000000000000000, 4.00000000000000000000, 4.00000000000000000000, 4.00000000000000000000, 4.00000000000000000000, 4.00000000000000000000, 4.00000000000000000000, 4.00000000000000000000, 4.00000000000000000000, 4.00000000000000000000, 4.00000000000000000000, 4.00000000000000000000, 1699.00000000000000000000, 1684.00000000000000000000, 0.00000000000000000000
37.00000000000000000000, 0.00000000000000000000, 4352.00000000000000000000, 279.86315789473684000000, 4052.00000000000000000000, -292.55789473684212000000, 4545.00000000000000000000, 111.54736842105264000000, 4392.00000000000000000000, 8.06315789473684140000, 3906.00000000000000000000, -62.81052631578947400000, 4499.00000000000000000000, 149.59999999999999000000, 4755.00000000000000000000, -195.52631578947367000000, 0.00000000000000000000, 4.00000000000000000000, 4.00000000000000000000, 4.00000000000000000000, 4.00000000000000000000, 4.00000000000000000000, 4.00000000000000000000, 4.00000000000000000000, 4.00000000000000000000, 4.00000000000000000000, 4.00000000000000000000, 4.00000000000000000000, 4.00000000000000000000, 4.00000000000000000000, 4.00000000000000000000, 4.00000000000000000000, 4.00000000000000000000, 1700.00000000000000000000, 1685.00000000000000000000, 0.00000000000000000000
38.00000000000000000000, 0.00000000000000000000, 4362.00000000000000000000, 286.01052631578949000000, 4047.00000000000000000000, -288.45263157894738000000, 4553.00000000000000000000, 110.01052631578948000000, 4379.00000000000000000000, 0.36842105263157893000, 3903.00000000000000000000, -55.12631578947368600000, 4509.00000000000000000000, 157.81052631578947000000, 4771.00000000000000000000, -181.68421052631578000000, 0.00000000000000000000, 4.00000000000000000000, 4.00000000000000000000, 4.00000000000000000000, 4.00000000000000000000, 4.00000000000000000000, 4.00000000000000000000, 4.00000000000000000000, 4.00000000000000000000, 4.00000000000000000000, 4.00000000000000000000, 4.00000000000000000000, 4.00000000000000000000, 4.00000000000000000000, 4.00000000000000000000, 4.00000000000000000000, 4.00000000000000000000, 1700.00000000000000000000, 1687.00000000000000000000, 0.00000000000000000000
39.00000000000000000000, 0.00000000000000000000, 4365.00000000000000000000, 286.52631578947370000000, 4046.00000000000000000000, -291.02105263157893000000, 4553.00000000000000000000, 108.97894736842105000000, 4384.00000000000000000000, 11.65263157894736800000, 3904.00000000000000000000, -52.04210526315789300000, 4516.00000000000000000000, 161.40000000000001000000, 4776.00000000000000000000, -175.01052631578946000000, 0.00000000000000000000, 4.00000000000000000000, 4.00000000000000000000, 4.00000000000000000000, 4.00000000000000000000, 4.00000000000000000000, 4.00000000000000000000, 4.00000000000000000000, 4.00000000000000000000, 4.00000000000000000000, 4.00000000000000000000, 4.00000000000000000000, 4.00000000000000000000, 4.00000000000000000000, 4.00000000000000000000, 4.00000000000000000000, 4.00000000000000000000, 1702.00000000000000000000, 1687.00000000000000000000, 0.00000000000000000000
40.00000000000000000000, 0.00000000000000000000, 4353.00000000000000000000, 281.90526315789475000000, 4052.00000000000000000000, -297.16842105263157000000, 4548.00000000000000000000, 110.51578947368421000000, 4393.00000000000000000000, 12.68421052631578900000, 3895.00000000000000000000, -60.25263157894736600000, 4510.00000000000000000000, 154.72631578947369000000, 4766.00000000000000000000, -183.72631578947369000000, 0.00000000000000000000, 4.00000000000000000000, 4.00000000000000000000, 4.00000000000000000000, 4.00000000000000000000, 4.00000000000000000000, 4.00000000000000000000, 4.00000000000000000000, 4.00000000000000000000, 4.00000000000000000000, 4.00000000000000000000, 4.00000000000000000000, 4.00000000000000000000, 4.00000000000000000000, 4.00000000000000000000, 4.00000000000000000000, 4.00000000000000000000, 1701.00000000000000000000, 1688.00000000000000000000, 0.00000000000000000000
41.00000000000000000000, 0.00000000000000000000, 4351.00000000000000000000, 283.95789473684209000000, 4057.00000000000000000000, -295.63157894736844000000, 4544.00000000000000000000, 109.49473684210527000000, 4405.00000000000000000000, 28.06315789473684300000, 3911.00000000000000000000, -56.66315789473684100000, 4510.00000000000000000000, 155.24210526315790000000, 4767.00000000000000000000, -181.68421052631578000000, 0.00000000000000000000, 4.00000000000000000000, 4.00000000000000000000, 4.00000000000000000000, 4.00000000000000000000, 4.00000000000000000000, 4.00000000000000000000, 4.00000000000000000000, 4.00000000000000000000, 4.00000000000000000000, 4.00000000000000000000, 4.00000000000000000000, 4.00000000000000000000, 4.00000000000000000000, 4.00000000000000000000, 4.00000000000000000000, 4.00000000000000000000, 1702.00000000000000000000, 1689.00000000000000000000, 0.00000000000000000000
42.00000000000000000000, 0.00000000000000000000, 4364.00000000000000000000, 294.22105263157897000000, 4074.00000000000000000000, -287.43157894736839000000, 4538.00000000000000000000, 106.42105263157895000000, 4415.00000000000000000000, 50.11578947368421000000, 3941.00000000000000000000, -37.16842105263157900000, 4527.00000000000000000000, 172.16842105263157000000, 4785.00000000000000000000, -165.77894736842106000000, 0.00000000000000000000, 4.00000000000000000000, 4.00000000000000000000, 4.00000000000000000000, 4.00000000000000000000, 4.00000000000000000000, 4.00000000000000000000, 4.00000000000000000000, 4.00000000000000000000, 4.00000000000000000000, 4.00000000000000000000, 4.00000000000000000000, 4.00000000000000000000, 4.00000000000000000000, 4.00000000000000000000, 4.00000000000000000000, 4.00000000000000000000, 1701.00000000000000000000, 1686.00000000000000000000, 0.00000000000000000000
43.00000000000000000000, 0.00000000000000000000, 4373.00000000000000000000, 300.88421052631577000000, 4085.00000000000000000000, -285.37894736842105000000, 4541.00000000000000000000, 105.90526315789474000000, 4412.00000000000000000000, 51.13684210526315600000, 3944.00000000000000000000, -26.39999999999999900000, 4539.00000000000000000000, 178.31578947368422000000, 4795.00000000000000000000, -157.06315789473683000000, 0.00000000000000000000, 4.00000000000000000000, 4.00000000000000000000, 4.00000000000000000000, 4.00000000000000000000, 4.00000000000000000000, 4.00000000000000000000, 4.00000000000000000000, 4.00000000000000000000, 4.00000000000000000000, 4.00000000000000000000, 4.00000000000000000000, 4.00000000000000000000, 4.00000000000000000000, 4.00000000000000000000, 4.00000000000000000000, 4.00000000000000000000, 1701.00000000000000000000, 1687.00000000000000000000, 0.00000000000000000000
44.00000000000000000000, 0.00000000000000000000, 4361.00000000000000000000, 290.11578947368423000000, 4075.00000000000000000000, -291.53684210526313000000, 4542.00000000000000000000, 107.95789473684211000000, 4419.00000000000000000000, 55.24210526315789600000, 3940.00000000000000000000, -38.71578947368421100000, 4525.00000000000000000000, 165.49473684210525000000, 4776.00000000000000000000, -171.93684210526317000000, 0.00000000000000000000, 4.00000000000000000000, 4.00000000000000000000, 4.00000000000000000000, 4.00000000000000000000, 4.00000000000000000000, 4.00000000000000000000, 4.00000000000000000000, 4.00000000000000000000, 4.00000000000000000000, 4.00000000000000000000, 4.00000000000000000000, 4.00000000000000000000, 4.00000000000000000000, 4.00000000000000000000, 4.00000000000000000000, 4.00000000000000000000, 1702.00000000000000000000, 1687.00000000000000000000, 0.00000000000000000000
45.00000000000000000000, 0.00000000000000000000, 4344.00000000000000000000, 279.86315789473684000000, 4065.00000000000000000000, -293.57894736842104000000, 4539.00000000000000000000, 108.97894736842105000000, 4423.00000000000000000000, 53.70526315789473400000, 3939.00000000000000000000, -53.57894736842105500000, 4504.00000000000000000000, 154.72631578947369000000, 4755.00000000000000000000, -192.45263157894738000000, 0.00000000000000000000, 4.00000000000000000000, 4.00000000000000000000, 4.00000000000000000000, 4.00000000000000000000, 4.00000000000000000000, 4.00000000000000000000, 4.00000000000000000000, 4.00000000000000000000, 4.00000000000000000000, 4.00000000000000000000, 4.00000000000000000000, 4.00000000000000000000, 4.00000000000000000000, 4.00000000000000000000, 4.00000000000000000000, 4.00000000000000000000, 1701.00000000000000000000, 1687.00000000000000000000, 0.00000000000000000000
46.00000000000000000000, 0.00000000000000000000, 4349.00000000000000000000, 292.16842105263157000000, 4067.00000000000000000000, -289.48421052631579000000, 4552.00000000000000000000, 107.44210526315790000000, 4394.00000000000000000000, 20.36842105263157900000, 3926.00000000000000000000, -52.04210526315789300000, 4508.00000000000000000000, 153.18947368421053000000, 4761.00000000000000000000, -193.47368421052633000000, 0.00000000000000000000, 4.00000000000000000000, 4.00000000000000000000, 4.00000000000000000000, 4.00000000000000000000, 4.00000000000000000000, 4.00000000000000000000, 4.00000000000000000000, 4.00000000000000000000, 4.00000000000000000000, 4.00000000000000000000, 4.00000000000000000000, 4.00000000000000000000, 4.00000000000000000000, 4.00000000000000000000, 4.00000000000000000000, 4.00000000000000000000, 1702.00000000000000000000, 1686.00000000000000000000, 0.00000000000000000000
47.00000000000000000000, 0.00000000000000000000, 4357.00000000000000000000, 298.83157894736843000000, 4067.00000000000000000000, -287.43157894736839000000, 4556.00000000000000000000, 105.38947368421053000000, 4384.00000000000000000000, 6.52631578947368410000, 3915.00000000000000000000, -46.91578947368421400000, 4515.00000000000000000000, 156.77894736842106000000, 4770.00000000000000000000, -186.81052631578947000000, 0.00000000000000000000, 4.00000000000000000000, 4.00000000000000000000, 4.00000000000000000000, 4.00000000000000000000, 4.00000000000000000000, 4.00000000000000000000, 4.00000000000000000000, 4.00000000000000000000, 4.00000000000000000000, 4.00000000000000000000, 4.00000000000000000000, 4.00000000000000000000, 4.00000000000000000000, 4.00000000000000000000, 4.00000000000000000000, 4.00000000000000000000, 1701.00000000000000000000, 1687.00000000000000000000, 0.00000000000000000000
48.00000000000000000000, 0.00000000000000000000, 4352.00000000000000000000, 289.60000000000002000000, 4057.00000000000000000000, -289.98947368421051000000, 4544.00000000000000000000, 106.92631578947369000000, 4406.00000000000000000000, 26.52631578947368500000, 3922.00000000000000000000, -49.98947368421052300000, 4509.00000000000000000000, 154.72631578947369000000, 4765.00000000000000000000, -184.75789473684210000000, 0.00000000000000000000, 4.00000000000000000000, 4.00000000000000000000, 4.00000000000000000000, 4.00000000000000000000, 4.00000000000000000000, 4.00000000000000000000, 4.00000000000000000000, 4.00000000000000000000, 4.00000000000000000000, 4.00000000000000000000, 4.00000000000000000000, 4.00000000000000000000, 4.00000000000000000000, 4.00000000000000000000, 4.00000000000000000000, 4.00000000000000000000, 1701.00000000000000000000, 1686.00000000000000000000, 0.00000000000000000000
49.00000000000000000000, 0.00000000000000000000, 4356.00000000000000000000, 288.57894736842104000000, 4059.00000000000000000000, -293.57894736842104000000, 4544.00000000000000000000, 109.49473684210527000000, 4409.00000000000000000000, 18.83157894736842100000, 3917.00000000000000000000, -56.66315789473684100000, 4506.00000000000000000000, 155.24210526315790000000, 4761.00000000000000000000, -182.70526315789473000000, 0.00000000000000000000, 4.00000000000000000000, 4.00000000000000000000, 4.00000000000000000000, 4.00000000000000000000, 4.00000000000000000000, 4.00000000000000000000, 4.00000000000000000000, 4.00000000000000000000, 4.00000000000000000000, 4.00000000000000000000, 4.00000000000000000000, 4.00000000000000000000, 4.00000000000000000000, 4.00000000000000000000, 4.00000000000000000000, 4.00000000000000000000, 1699.00000000000000000000, 1688.00000000000000000000, 0.00000000000000000000
50.00000000000000000000, 0.00000000000000000000, 4367.00000000000000000000, 293.18947368421055000000, 4066.00000000000000000000, -291.53684210526313000000, 4553.00000000000000000000, 110.01052631578948000000, 4391.00000000000000000000, -8.34736842105263220000, 3898.00000000000000000000, -60.76842105263158100000, 4512.00000000000000000000, 155.24210526315790000000, 4766.00000000000000000000, -181.16842105263157000000, 0.00000000000000000000, 4.00000000000000000000, 4.00000000000000000000, 4.00000000000000000000, 4.00000000000000000000, 4.00000000000000000000, 4.00000000000000000000, 4.00000000000000000000, 4.00000000000000000000, 4.00000000000000000000, 4.00000000000000000000, 4.00000000000000000000, 4.00000000000000000000, 4.00000000000000000000, 4.00000000000000000000, 4.00000000000000000000, 4.00000000000000000000, 1701.00000000000000000000, 1687.00000000000000000000, 0.00000000000000000000
51.00000000000000000000, 0.00000000000000000000, 4371.00000000000000000000, 288.06315789473683000000, 4062.00000000000000000000, -287.43157894736839000000, 4547.00000000000000000000, 105.38947368421053000000, 4392.00000000000000000000, -0.65263157894736845000, 3903.00000000000000000000, -57.16842105263157900000, 4515.00000000000000000000, 150.63157894736841000000, 4772.00000000000000000000, -178.59999999999999000000, 0.00000000000000000000, 4.00000000000000000000, 4.00000000000000000000, 4.00000000000000000000, 4.00000000000000000000, 4.00000000000000000000, 4.00000000000000000000, 4.00000000000000000000, 4.00000000000000000000, 4.00000000000000000000, 4.00000000000000000000, 4.00000000000000000000, 4.00000000000000000000, 4.00000000000000000000, 4.00000000000000000000, 4.00000000000000000000, 4.00000000000000000000, 1699.00000000000000000000, 1687.00000000000000000000, 0.00000000000000000000
52.00000000000000000000, 0.00000000000000000000, 4369.00000000000000000000, 279.34736842105264000000, 4063.00000000000000000000, -292.04210526315791000000, 4533.00000000000000000000, 101.28421052631579000000, 4411.00000000000000000000, 24.47368421052631500000, 3918.00000000000000000000, -55.63157894736841800000, 4511.00000000000000000000, 153.18947368421053000000, 4770.00000000000000000000, -178.59999999999999000000, 0.00000000000000000000, 4.00000000000000000000, 4.00000000000000000000, 4.00000000000000000000, 4.00000000000000000000, 4.00000000000000000000, 4.00000000000000000000, 4.00000000000000000000, 4.00000000000000000000, 4.00000000000000000000, 4.00000000000000000000, 4.00000000000000000000, 4.00000000000000000000, 4.00000000000000000000, 4.00000000000000000000, 4.00000000000000000000, 4.00000000000000000000, 1699.00000000000000000000, 1688.00000000000000000000, 0.00000000000000000000
53.00000000000000000000, 0.00000000000000000000, 4364.00000000000000000000, 276.77894736842103000000, 4062.00000000000000000000, -302.81052631578945000000, 4535.00000000000000000000, 107.44210526315790000000, 4417.00000000000000000000, 26.52631578947368500000, 3917.00000000000000000000, -57.68421052631578800000, 4510.00000000000000000000, 156.27368421052631000000, 4764.00000000000000000000, -180.65263157894736000000, 0.00000000000000000000, 4.00000000000000000000, 4.00000000000000000000, 4.00000000000000000000, 4.00000000000000000000, 4.00000000000000000000, 4.00000000000000000000, 4.00000000000000000000, 4.00000000000000000000, 4.00000000000000000000, 4.00000000000000000000, 4.00000000000000000000, 4.00000000000000000000, 4.00000000000000000000, 4.00000000000000000000, 4.00000000000000000000, 4.00000000000000000000, 1699.00000000000000000000, 1687.00000000000000000000, 0.00000000000000000000
54.00000000000000000000, 0.00000000000000000000, 4365.00000000000000000000, 281.90526315789475000000, 4059.00000000000000000000, -298.71578947368420000000, 4546.00000000000000000000, 111.54736842105264000000, 4401.00000000000000000000, 14.72631578947368400000, 3909.00000000000000000000, -59.73684210526315800000, 4513.00000000000000000000, 156.77894736842106000000, 4764.00000000000000000000, -178.59999999999999000000, 0.00000000000000000000, 4.00000000000000000000, 4.00000000000000000000, 4.00000000000000000000, 4.00000000000000000000, 4.00000000000000000000, 4.00000000000000000000, 4.00000000000000000000, 4.00000000000000000000, 4.00000000000000000000, 4.00000000000000000000, 4.00000000000000000000, 4.00000000000000000000, 4.00000000000000000000, 4.00000000000000000000, 4.00000000000000000000, 4.00000000000000000000, 1698.00000000000000000000, 1688.00000000000000000000, 0.00000000000000000000
55.00000000000000000000, 0.00000000000000000000, 4374.00000000000000000000, 289.08421052631581000000, 4063.00000000000000000000, -293.57894736842104000000, 4542.00000000000000000000, 99.23157894736841900000, 4393.00000000000000000000, 18.83157894736842100000, 3914.00000000000000000000, -58.71578947368421100000, 4515.00000000000000000000, 161.40000000000001000000, 4768.00000000000000000000, -174.50526315789475000000, 0.00000000000000000000, 4.00000000000000000000, 4.00000000000000000000, 4.00000000000000000000, 4.00000000000000000000, 4.00000000000000000000, 4.00000000000000000000, 4.00000000000000000000, 4.00000000000000000000, 4.00000000000000000000, 4.00000000000000000000, 4.00000000000000000000, 4.00000000000000000000, 4.00000000000000000000, 4.00000000000000000000, 4.00000000000000000000, 4.00000000000000000000, 1698.00000000000000000000, 1687.00000000000000000000, 0.00000000000000000000
56.00000000000000000000, 0.00000000000000000000, 4377.00000000000000000000, 288.06315789473683000000, 4064.00000000000000000000, -297.16842105263157000000, 4532.00000000000000000000, 93.08421052631578600000, 4407.00000000000000000000, 33.18947368421052600000, 3927.00000000000000000000, -52.04210526315789300000, 4517.00000000000000000000, 159.34736842105264000000, 4772.00000000000000000000, -174.50526315789475000000, 0.00000000000000000000, 4.00000000000000000000, 4.00000000000000000000, 4.00000000000000000000, 4.00000000000000000000, 4.00000000000000000000, 4.00000000000000000000, 4.00000000000000000000, 4.00000000000000000000, 4.00000000000000000000, 4.00000000000000000000, 4.00000000000000000000, 4.00000000000000000000, 4.00000000000000000000, 4.00000000000000000000, 4.00000000000000000000, 4.00000000000000000000, 1698.00000000000000000000, 1686.00000000000000000000, 0.00000000000000000000
57.00000000000000000000, 0.00000000000000000000, 4372.00000000000000000000, 280.36842105263156000000, 4063.00000000000000000000, -296.66315789473686000000, 4531.00000000000000000000, 102.31578947368421000000, 4414.00000000000000000000, 33.18947368421052600000, 3928.00000000000000000000, -54.09473684210526300000, 4513.00000000000000000000, 156.77894736842106000000, 4766.00000000000000000000, -177.57894736842104000000, 0.00000000000000000000, 4.00000000000000000000, 4.00000000000000000000, 4.00000000000000000000, 4.00000000000000000000, 4.00000000000000000000, 4.00000000000000000000, 4.00000000000000000000, 4.00000000000000000000, 4.00000000000000000000, 4.00000000000000000000, 4.00000000000000000000, 4.00000000000000000000, 4.00000000000000000000, 4.00000000000000000000, 4.00000000000000000000, 4.00000000000000000000, 1697.00000000000000000000, 1686.00000000000000000000, 0.00000000000000000000
58.00000000000000000000, 0.00000000000000000000, 4368.00000000000000000000, 283.45263157894738000000, 4061.00000000000000000000, -296.14736842105265000000, 4534.00000000000000000000, 107.44210526315790000000, 4405.00000000000000000000, 23.45263157894736800000, 3925.00000000000000000000, -64.86315789473684400000, 4505.00000000000000000000, 155.24210526315790000000, 4752.00000000000000000000, -184.24210526315790000000, 0.00000000000000000000, 4.00000000000000000000, 4.00000000000000000000, 4.00000000000000000000, 4.00000000000000000000, 4.00000000000000000000, 4.00000000000000000000, 4.00000000000000000000, 4.00000000000000000000, 4.00000000000000000000, 4.00000000000000000000, 4.00000000000000000000, 4.00000000000000000000, 4.00000000000000000000, 4.00000000000000000000, 4.00000000000000000000, 4.00000000000000000000, 1697.00000000000000000000, 1685.00000000000000000000, 0.00000000000000000000
59.00000000000000000000, 0.00000000000000000000, 4365.00000000000000000000, 288.57894736842104000000, 4059.00000000000000000000, -296.66315789473686000000, 4535.00000000000000000000, 104.87368421052632000000, 4398.00000000000000000000, 20.36842105263157900000, 3928.00000000000000000000, -66.40000000000000600000, 4501.00000000000000000000, 148.06315789473683000000, 4747.00000000000000000000, -195.01052631578946000000, 0.00000000000000000000, 4.00000000000000000000, 4.00000000000000000000, 4.00000000000000000000, 4.00000000000000000000, 4.00000000000000000000, 4.00000000000000000000, 4.00000000000000000000, 4.00000000000000000000, 4.00000000000000000000, 4.00000000000000000000, 4.00000000000000000000, 4.00000000000000000000, 4.00000000000000000000, 4.00000000000000000000, 4.00000000000000000000, 4.00000000000000000000, 1698.00000000000000000000, 1685.00000000000000000000, 0.00000000000000000000
60.00000000000000000000, 0.00000000000000000000, 4359.00000000000000000000, 282.93684210526317000000, 4060.00000000000000000000, -296.14736842105265000000, 4535.00000000000000000000, 106.42105263157895000000, 4394.00000000000000000000, 11.65263157894736800000, 3919.00000000000000000000, -66.91578947368421400000, 4498.00000000000000000000, 139.86315789473684000000, 4749.00000000000000000000, -201.16842105263157000000, 0.00000000000000000000, 4.00000000000000000000, 4.00000000000000000000, 4.00000000000000000000, 4.00000000000000000000, 4.00000000000000000000, 4.00000000000000000000, 4.00000000000000000000, 4.00000000000000000000, 4.00000000000000000000, 4.00000000000000000000, 4.00000000000000000000, 4.00000000000000000000, 4.00000000000000000000, 4.00000000000000000000, 4.00000000000000000000, 4.00000000000000000000, 1696.00000000000000000000, 1686.00000000000000000000, 0.00000000000000000000
61.00000000000000000000, 0.00000000000000000000, 4355.00000000000000000000, 279.86315789473684000000, 4056.00000000000000000000, -293.57894736842104000000, 4538.00000000000000000000, 106.42105263157895000000, 4391.00000000000000000000, 5.49473684210526340000, 3911.00000000000000000000, -66.40000000000000600000, 4502.00000000000000000000, 138.83157894736843000000, 4754.00000000000000000000, -197.57894736842104000000, 0.00000000000000000000, 4.00000000000000000000, 4.00000000000000000000, 4.00000000000000000000, 4.00000000000000000000, 4.00000000000000000000, 4.00000000000000000000, 4.00000000000000000000, 4.00000000000000000000, 4.00000000000000000000, 4.00000000000000000000, 4.00000000000000000000, 4.00000000000000000000, 4.00000000000000000000, 4.00000000000000000000, 4.00000000000000000000, 4.00000000000000000000, 1698.00000000000000000000, 1685.00000000000000000000, 0.00000000000000000000
62.00000000000000000000, 0.00000000000000000000, 4354.00000000000000000000, 282.42105263157896000000, 4052.00000000000000000000, -297.68421052631578000000, 4534.00000000000000000000, 101.28421052631579000000, 4400.00000000000000000000, 20.88421052631579000000, 3923.00000000000000000000, -60.76842105263158100000, 4509.00000000000000000000, 142.42105263157896000000, 4756.00000000000000000000, -198.09473684210528000000, 0.00000000000000000000, 4.00000000000000000000, 4.00000000000000000000, 4.00000000000000000000, 4.00000000000000000000, 4.00000000000000000000, 4.00000000000000000000, 4.00000000000000000000, 4.00000000000000000000, 4.00000000000000000000, 4.00000000000000000000, 4.00000000000000000000, 4.00000000000000000000, 4.00000000000000000000, 4.00000000000000000000, 4.00000000000000000000, 4.00000000000000000000, 1697.00000000000000000000, 1686.00000000000000000000, 0.00000000000000000000
63.00000000000000000000, 0.00000000000000000000, 4353.00000000000000000000, 280.36842105263156000000, 4047.00000000000000000000, -303.84210526315792000000, 4528.00000000000000000000, 96.15789473684211000000, 4403.00000000000000000000, 23.45263157894736800000, 3927.00000000000000000000, -61.78947368421052700000, 4512.00000000000000000000, 143.95789473684209000000, 4755.00000000000000000000, -200.65263157894736000000, 0.00000000000000000000, 4.00000000000000000000, 4.00000000000000000000, 4.00000000000000000000, 4.00000000000000000000, 4.00000000000000000000, 4.00000000000000000000, 4.00000000000000000000, 4.00000000000000000000, 4.00000000000000000000, 4.00000000000000000000, 4.00000000000000000000, 4.00000000000000000000, 4.00000000000000000000, 4.00000000000000000000, 4.00000000000000000000, 4.00000000000000000000, 1697.00000000000000000000, 1687.00000000000000000000, 0.00000000000000000000
64.00000000000000000000, 0.00000000000000000000, 4362.00000000000000000000, 286.01052631578949000000, 4045.00000000000000000000, -300.25263157894739000000, 4533.00000000000000000000, 97.18947368421052600000, 4389.00000000000000000000, 8.06315789473684140000, 3919.00000000000000000000, -59.22105263157894900000, 4519.00000000000000000000, 147.54736842105262000000, 4764.00000000000000000000, -187.31578947368422000000, 435.00000000000000000000, 4.00000000000000000000, 4.00000000000000000000, 4.00000000000000000000, 4.00000000000000000000, 4.00000000000000000000, 4.00000000000000000000, 4.00000000000000000000, 4.00000000000000000000, 4.00000000000000000000, 4.00000000000000000000, 4.00000000000000000000, 4.00000000000000000000, 4.00000000000000000000, 4.00000000000000000000, 4.00000000000000000000, 4.00000000000000000000, 1698.00000000000000000000, 1685.00000000000000000000, 0.00000000000000000000
65.00000000000000000000, 0.00000000000000000000, 4373.00000000000000000000, 297.81052631578945000000, 4056.00000000000000000000, -289.48421052631579000000, 4533.00000000000000000000, 103.33684210526316000000, 4391.00000000000000000000, 17.29473684210526200000, 3929.00000000000000000000, -45.89473684210526000000, 4531.00000000000000000000, 158.31578947368422000000, 4775.00000000000000000000, -170.91578947368421000000, 471.00000000000000000000, 4.00000000000000000000, 4.00000000000000000000, 4.00000000000000000000, 4.00000000000000000000, 4.00000000000000000000, 4.00000000000000000000, 4.00000000000000000000, 4.00000000000000000000, 4.00000000000000000000, 4.00000000000000000000, 4.00000000000000000000, 4.00000000000000000000, 4.00000000000000000000, 4.00000000000000000000, 4.00000000000000000000, 4.00000000000000000000, 1698.00000000000000000000, 1686.00000000000000000000, 0.00000000000000000000
66.00000000000000000000, 0.00000000000000000000, 4371.00000000000000000000, 295.24210526315790000000, 4061.00000000000000000000, -289.48421052631579000000, 4524.00000000000000000000, 104.87368421052632000000, 4409.00000000000000000000, 37.29473684210526600000, 3943.00000000000000000000, -41.78947368421052700000, 4535.00000000000000000000, 158.83157894736843000000, 4775.00000000000000000000, -173.98947368421054000000, 496.00000000000000000000, 4.00000000000000000000, 4.00000000000000000000, 4.00000000000000000000, 4.00000000000000000000, 4.00000000000000000000, 4.00000000000000000000, 4.00000000000000000000, 4.00000000000000000000, 4.00000000000000000000, 4.00000000000000000000, 4.00000000000000000000, 4.00000000000000000000, 4.00000000000000000000, 4.00000000000000000000, 4.00000000000000000000, 4.00000000000000000000, 1698.00000000000000000000, 1684.00000000000000000000, 0.00000000000000000000
67.00000000000000000000, 0.00000000000000000000, 4367.00000000000000000000, 288.06315789473683000000, 4057.00000000000000000000, -295.63157894736844000000, 4522.00000000000000000000, 102.83157894736843000000, 4407.00000000000000000000, 29.08421052631579000000, 3933.00000000000000000000, -53.07368421052631600000, 4527.00000000000000000000, 153.70526315789473000000, 4766.00000000000000000000, -183.22105263157894000000, 502.00000000000000000000, 4.00000000000000000000, 4.00000000000000000000, 4.00000000000000000000, 4.00000000000000000000, 4.00000000000000000000, 4.00000000000000000000, 4.00000000000000000000, 4.00000000000000000000, 4.00000000000000000000, 4.00000000000000000000, 4.00000000000000000000, 4.00000000000000000000, 4.00000000000000000000, 4.00000000000000000000, 4.00000000000000000000, 4.00000000000000000000, 1698.00000000000000000000, 1686.00000000000000000000, 0.00000000000000000000
68.00000000000000000000, 0.00000000000000000000, 4370.00000000000000000000, 293.70526315789476000000, 4059.00000000000000000000, -290.50526315789472000000, 4529.00000000000000000000, 100.77894736842106000000, 4391.00000000000000000000, 10.63157894736842100000, 3918.00000000000000000000, -59.73684210526315800000, 4518.00000000000000000000, 150.63157894736841000000, 4763.00000000000000000000, -184.75789473684210000000, 510.00000000000000000000, 4.00000000000000000000, 4.00000000000000000000, 4.00000000000000000000, 4.00000000000000000000, 4.00000000000000000000, 4.00000000000000000000, 4.00000000000000000000, 4.00000000000000000000, 4.00000000000000000000, 4.00000000000000000000, 4.00000000000000000000, 4.00000000000000000000, 4.00000000000000000000, 4.00000000000000000000, 4.00000000000000000000, 4.00000000000000000000, 1699.00000000000000000000, 1685.00000000000000000000, 0.00000000000000000000
69.00000000000000000000, 0.00000000000000000000, 4370.00000000000000000000, 300.36842105263156000000, 4064.00000000000000000000, -287.43157894736839000000, 4532.00000000000000000000, 99.74736842105262700000, 4392.00000000000000000000, 13.70526315789473800000, 3922.00000000000000000000, -59.73684210526315800000, 4518.00000000000000000000, 144.98947368421054000000, 4763.00000000000000000000, -183.72631578947369000000, 460.00000000000000000000, 4.00000000000000000000, 4.00000000000000000000, 4.00000000000000000000, 4.00000000000000000000, 4.00000000000000000000, 4.00000000000000000000, 4.00000000000000000000, 4.00000000000000000000, 4.00000000000000000000, 4.00000000000000000000, 4.00000000000000000000, 4.00000000000000000000, 4.00000000000000000000, 4.00000000000000000000, 4.00000000000000000000, 4.00000000000000000000, 1698.00000000000000000000, 1685.00000000000000000000, 0.00000000000000000000
70.00000000000000000000, 0.00000000000000000000, 4370.00000000000000000000, 300.88421052631577000000, 4069.00000000000000000000, -288.96842105263158000000, 4529.00000000000000000000, 105.38947368421053000000, 4405.00000000000000000000, 18.83157894736842100000, 3924.00000000000000000000, -65.89473684210526000000, 4517.00000000000000000000, 147.04210526315791000000, 4759.00000000000000000000, -183.72631578947369000000, 433.00000000000000000000, 4.00000000000000000000, 4.00000000000000000000, 4.00000000000000000000, 4.00000000000000000000, 4.00000000000000000000, 4.00000000000000000000, 4.00000000000000000000, 4.00000000000000000000, 4.00000000000000000000, 4.00000000000000000000, 4.00000000000000000000, 4.00000000000000000000, 4.00000000000000000000, 4.00000000000000000000, 4.00000000000000000000, 4.00000000000000000000, 1698.00000000000000000000, 1686.00000000000000000000, 0.00000000000000000000
71.00000000000000000000, 0.00000000000000000000, 4372.00000000000000000000, 299.34736842105264000000, 4068.00000000000000000000, -286.91578947368419000000, 4533.00000000000000000000, 110.51578947368421000000, 4404.00000000000000000000, 11.13684210526315800000, 3919.00000000000000000000, -70.50526315789473100000, 4512.00000000000000000000, 151.65263157894736000000, 4758.00000000000000000000, -181.16842105263157000000, 375.00000000000000000000, 4.00000000000000000000, 4.00000000000000000000, 4.00000000000000000000, 4.00000000000000000000, 4.00000000000000000000, 4.00000000000000000000, 4.00000000000000000000, 4.00000000000000000000, 4.00000000000000000000, 4.00000000000000000000, 4.00000000000000000000, 4.00000000000000000000, 4.00000000000000000000, 4.00000000000000000000, 4.00000000000000000000, 4.00000000000000000000, 1698.00000000000000000000, 1686.00000000000000000000, 0.00000000000000000000
72.00000000000000000000, 0.00000000000000000000, 4364.00000000000000000000, 294.72631578947369000000, 4061.00000000000000000000, -291.02105263157893000000, 4535.00000000000000000000, 106.92631578947369000000, 4397.00000000000000000000, 3.95789473684210510000, 3915.00000000000000000000, -75.12631578947367900000, 4506.00000000000000000000, 148.06315789473683000000, 4751.00000000000000000000, -185.77894736842106000000, 436.00000000000000000000, 4.00000000000000000000, 4.00000000000000000000, 4.00000000000000000000, 4.00000000000000000000, 4.00000000000000000000, 4.00000000000000000000, 4.00000000000000000000, 4.00000000000000000000, 4.00000000000000000000, 4.00000000000000000000, 4.00000000000000000000, 4.00000000000000000000, 4.00000000000000000000, 4.00000000000000000000, 4.00000000000000000000, 4.00000000000000000000, 1699.00000000000000000000, 1685.00000000000000000000, 0.00000000000000000000
73.00000000000000000000, 0.00000000000000000000, 4358.00000000000000000000, 293.18947368421055000000, 4055.00000000000000000000, -293.07368421052632000000, 4530.00000000000000000000, 104.87368421052632000000, 4398.00000000000000000000, 2.42105263157894730000, 3911.00000000000000000000, -77.68421052631579500000, 4502.00000000000000000000, 145.49473684210525000000, 4744.00000000000000000000, -193.47368421052633000000, 442.00000000000000000000, 4.00000000000000000000, 4.00000000000000000000, 4.00000000000000000000, 4.00000000000000000000, 4.00000000000000000000, 4.00000000000000000000, 4.00000000000000000000, 4.00000000000000000000, 4.00000000000000000000, 4.00000000000000000000, 4.00000000000000000000, 4.00000000000000000000, 4.00000000000000000000, 4.00000000000000000000, 4.00000000000000000000, 4.00000000000000000000, 1698.00000000000000000000, 1686.00000000000000000000, 0.00000000000000000000
